节点asahi_max_350_MAYP1140501__0__000.txt的数据

Date: Tue Mar 01 15:52:28 GMT 2022
User: stone
Spectrometer: MAYP114050
触发模式: 0
积分时间 (秒): 9.380000E-3
Scans to average: 1
启用暗噪声校正: true
启用非线性校正: false
滑动平均宽度: 0
X轴模式: Wavelengths
Number of Pixels in Spectrum: 2068
>>>>>Begin Spectral Data<<<<<
198.571	712
199.043	-72
199.514	10
199.985	3
200.456	41
200.928	43
201.399	50
201.87	53
202.341	56
202.812	61
203.283	51
203.754	60
204.225	49
204.697	51
205.168	64
205.638	50
206.109	55
206.58	66
207.051	56
207.522	63
207.993	58
208.464	60
208.935	62
209.405	70
209.876	74
210.347	72
210.818	72
211.288	89
211.759	91
212.229	79
212.7	83
213.171	83
213.641	57
214.112	60
214.582	62
215.053	64
215.523	53
215.993	51
216.464	43
216.934	67
217.405	58
217.875	48
218.345	56
218.815	59
219.286	66
219.756	53
220.226	50
220.696	57
221.166	51
221.636	61
222.107	53
222.577	56
223.047	55
223.517	66
223.987	61
224.457	66
224.927	83
225.396	75
225.866	65
226.336	57
226.806	59
227.276	72
227.746	66
228.215	57
228.685	60
229.155	59
229.625	61
230.094	56
230.564	43
231.033	43
231.503	49
231.973	60
232.442	56
232.912	49
233.381	37
233.851	48
234.32	49
234.789	52
235.259	37
235.728	57
236.197	54
236.667	54
237.136	47
237.605	51
238.074	59
238.544	43
239.013	44
239.482	46
239.951	46
240.42	51
240.889	44
241.358	48
241.827	40
242.296	47
242.765	46
243.234	56
243.703	45
244.172	47
244.641	50
245.11	50
245.579	47
246.047	49
246.516	45
246.985	51
247.454	41
247.922	41
248.391	34
248.86	52
249.328	43
249.797	49
250.265	43
250.734	45
251.202	52
251.671	37
252.139	37
252.608	41
253.076	47
253.544	51
254.013	51
254.481	38
254.949	34
255.418	39
255.886	45
256.354	47
256.822	41
257.291	54
257.759	43
258.227	45
258.695	37
259.163	37
259.631	34
260.099	49
260.567	39
261.035	46
261.503	35
261.971	41
262.439	44
262.907	41
263.375	43
263.842	48
264.31	43
264.778	49
265.246	49
265.713	36
266.181	41
266.649	47
267.116	43
267.584	46
268.052	41
268.519	24
268.987	48
269.454	40
269.922	37
270.389	44
270.856	32
271.324	37
271.791	45
272.259	47
272.726	35
273.193	48
273.66	30
274.128	46
274.595	44
275.062	33
275.529	54
275.996	37
276.464	48
276.931	34
277.398	40
277.865	40
278.332	51
278.799	33
279.266	47
279.733	46
280.2	40
280.667	42
281.133	40
281.6	39
282.067	35
282.534	48
283.001	35
283.467	48
283.934	42
284.401	44
284.867	41
285.334	44
285.801	32
286.267	45
286.734	39
287.2	43
287.667	40
288.133	35
288.6	37
289.066	38
289.532	42
289.999	43
290.465	53
290.931	46
291.398	47
291.864	37
292.33	37
292.796	42
293.263	51
293.729	40
294.195	53
294.661	54
295.127	38
295.593	37
296.059	46
296.525	39
296.991	41
297.457	49
297.923	45
298.389	33
298.855	46
299.321	51
299.786	47
300.252	33
300.718	36
301.184	42
301.65	33
302.115	41
302.581	39
303.047	33
303.512	39
303.978	43
304.443	51
304.909	32
305.374	37
305.84	34
306.305	39
306.771	45
307.236	33
307.701	34
308.167	42
308.632	48
309.097	39
309.563	38
310.028	41
310.493	46
310.958	36
311.424	33
311.889	42
312.354	48
312.819	30
313.284	34
313.749	42
314.214	45
314.679	40
315.144	37
315.609	45
316.074	35
316.539	42
317.004	32
317.468	37
317.933	46
318.398	37
318.863	43
319.327	39
319.792	40
320.257	25
320.721	51
321.186	39
321.651	36
322.115	35
322.58	40
323.044	37
323.509	44
323.973	35
324.438	38
324.902	39
325.366	48
325.831	33
326.295	44
326.759	43
327.224	48
327.688	40
328.152	39
328.616	48
329.081	40
329.545	37
330.009	33
330.473	38
330.937	30
331.401	42
331.865	41
332.329	41
332.793	40
333.257	37
333.721	34
334.185	39
334.649	39
335.112	37
335.576	43
336.04	42
336.504	52
336.967	41
337.431	50
337.895	42
338.358	34
338.822	35
339.286	49
339.749	36
340.213	46
340.676	85
341.14	47
341.603	41
342.067	41
342.53	46
342.993	45
343.457	39
343.92	37
344.383	46
344.847	38
345.31	46
345.773	37
346.236	38
346.699	39
347.163	44
347.626	43
348.089	39
348.552	36
349.015	41
349.478	44
349.941	38
350.404	49
350.867	42
351.33	53
351.793	38
352.255	43
352.718	38
353.181	36
353.644	37
354.107	36
354.569	47
355.032	38
355.495	38
355.957	44
356.42	42
356.882	47
357.345	34
357.808	49
358.27	36
358.733	29
359.195	36
359.657	56
360.12	44
360.582	33
361.045	40
361.507	53
361.969	34
362.431	40
362.894	44
363.356	35
363.818	41
364.28	37
364.742	46
365.204	47
365.667	46
366.129	40
366.591	49
367.053	37
367.515	43
367.977	43
368.438	47
368.9	40
369.362	50
369.824	48
370.286	35
370.748	54
371.209	34
371.671	41
372.133	59
372.594	51
373.056	55
373.518	45
373.979	38
374.441	36
374.902	48
375.364	54
375.825	50
376.287	34
376.748	58
377.21	50
377.671	55
378.133	48
378.594	57
379.055	57
379.516	47
379.978	66
380.439	53
380.9	71
381.361	59
381.822	63
382.284	73
382.745	70
383.206	67
383.667	75
384.128	96
384.589	109
385.05	95
385.511	125
385.971	122
386.432	122
386.893	140
387.354	155
387.815	166
388.276	179
388.736	185
389.197	210
389.658	217
390.118	214
390.579	253
391.04	279
391.5	301
391.961	322
392.421	332
392.882	371
393.342	402
393.803	438
394.263	518
394.723	543
395.184	644
395.644	732
396.104	858
396.565	989
397.025	1125
397.485	1280
397.945	1475
398.406	1691
398.866	1949
399.326	2282
399.786	2438
400.246	2795
400.706	2932
401.166	3237
401.626	3437
402.086	3600
402.546	3773
403.006	3836
403.466	3889
403.926	3921
404.385	4029
404.845	3975
405.305	4018
405.765	4059
406.224	4099
406.684	4090
407.144	4120
407.603	4158
408.063	4156
408.523	4134
408.982	4262
409.442	4301
409.901	4401
410.361	4438
410.82	4475
411.28	4540
411.739	4568
412.198	4575
412.658	4587
413.117	4704
413.576	4722
414.035	4789
414.495	4891
414.954	4872
415.413	4935
415.872	5008
416.331	5107
416.79	5123
417.249	5253
417.709	5243
418.168	5263
418.627	5322
419.085	5288
419.544	5350
420.003	5413
420.462	5269
420.921	5278
421.38	5217
421.839	5136
422.297	5192
422.756	5250
423.215	5226
423.674	5193
424.132	5232
424.591	5090
425.049	5126
425.508	5193
425.967	5063
426.425	5037
426.884	5072
427.342	5040
427.8	4951
428.259	4967
428.717	4951
429.176	4883
429.634	4850
430.092	4864
430.551	4826
431.009	4903
431.467	4917
431.925	5022
432.383	5054
432.841	5059
433.3	5178
433.758	5238
434.216	5276
434.674	5340
435.132	5507
435.59	5517
436.048	5650
436.506	5689
436.963	5683
437.421	5679
437.879	5810
438.337	5879
438.795	5940
439.253	6057
439.71	6023
440.168	6074
440.626	5981
441.083	5995
441.541	6089
441.999	6158
442.456	6100
442.914	6114
443.371	6189
443.829	6219
444.286	6214
444.743	6301
445.201	6287
445.658	6282
446.116	6390
446.573	6555
447.03	6663
447.487	6768
447.945	6872
448.402	7128
448.859	7111
449.316	7290
449.773	7281
450.23	7298
450.688	7394
451.145	7220
451.602	7002
452.059	7012
452.516	7085
452.972	7095
453.429	7089
453.886	7020
454.343	7126
454.8	7188
455.257	7258
455.713	7494
456.17	7585
456.627	7755
457.084	7801
457.54	7848
457.997	7776
458.454	7850
458.91	7981
459.367	8014
459.823	8068
460.28	8091
460.736	8274
461.193	8363
461.649	8439
462.105	8457
462.562	8570
463.018	8560
463.474	8483
463.931	8612
464.387	8761
464.843	8834
465.299	8916
465.755	9308
466.212	9548
466.668	9612
467.124	9753
467.58	9734
468.036	9589
468.492	9430
468.948	9233
469.404	8823
469.86	8786
470.316	8644
470.771	8706
471.227	8637
471.683	8800
472.139	8852
472.595	8738
473.05	8608
473.506	8508
473.962	8364
474.417	8016
474.873	7879
475.328	7747
475.784	7645
476.24	7674
476.695	7659
477.15	7632
477.606	7713
478.061	7947
478.517	7939
478.972	8067
479.427	8313
479.883	8399
480.338	8587
480.793	8577
481.248	8567
481.704	8478
482.159	8513
482.614	8383
483.069	8276
483.524	8243
483.979	8140
484.434	7954
484.889	7930
485.344	7887
485.799	7928
486.254	7907
486.709	7976
487.164	7973
487.619	8045
488.073	8098
488.528	8190
488.983	8138
489.438	8299
489.892	8436
490.347	8600
490.802	8816
491.256	8887
491.711	8814
492.165	8783
492.62	8893
493.074	8651
493.529	8552
493.983	8401
494.438	8267
494.892	8135
495.347	8163
495.801	7986
496.255	7992
496.709	7920
497.164	7902
497.618	7874
498.072	7885
498.526	7843
498.98	7866
499.435	7779
499.889	7885
500.343	7733
500.797	7763
501.251	7793
501.705	7766
502.159	7761
502.612	7742
503.066	7765
503.52	7800
503.974	7620
504.428	7861
504.882	7726
505.335	7842
505.789	7755
506.243	7840
506.696	7823
507.15	7974
507.604	7885
508.057	7807
508.511	7837
508.964	7958
509.418	7866
509.871	7820
510.325	7830
510.778	7772
511.231	7703
511.685	7869
512.138	7848
512.591	7828
513.045	7905
513.498	8000
513.951	8005
514.404	7928
514.857	7888
515.311	8064
515.764	8057
516.217	7991
516.67	8024
517.123	8024
517.576	8042
518.029	8105
518.482	7997
518.935	8064
519.388	8133
519.84	7982
520.293	8023
520.746	7983
521.199	8015
521.651	7973
522.104	7881
522.557	7974
523.009	7887
523.462	7849
523.915	7911
524.367	7946
524.82	7900
525.272	7944
525.725	7792
526.177	7905
526.63	7913
527.082	7937
527.534	7987
527.987	7975
528.439	7928
528.891	7908
529.344	7968
529.796	7912
530.248	7889
530.7	7958
531.152	7918
531.604	7909
532.057	7960
532.509	7985
532.961	8067
533.413	8091
533.865	7927
534.317	8045
534.768	8183
535.22	8025
535.672	8127
536.124	8057
536.576	8125
537.028	8179
537.479	8047
537.931	8194
538.383	8203
538.834	8158
539.286	8328
539.738	8155
540.189	8339
540.641	8327
541.092	8226
541.544	8201
541.995	8307
542.447	8279
542.898	8184
543.349	8380
543.801	8263
544.252	8330
544.703	8233
545.155	8234
545.606	8280
546.057	8163
546.508	8164
546.959	8092
547.411	8097
547.862	8117
548.313	8110
548.764	8079
549.215	8039
549.666	8066
550.117	8086
550.568	7993
551.019	7977
551.469	8024
551.92	8033
552.371	7972
552.822	7867
553.273	7931
553.723	8017
554.174	7952
554.625	7949
555.075	7968
555.526	7999
555.977	7995
556.427	7929
556.878	8075
557.328	7955
557.779	7953
558.229	8064
558.679	7958
559.13	8099
559.58	8081
560.031	7958
560.481	8149
560.931	8131
561.381	8184
561.832	8246
562.282	8305
562.732	8222
563.182	8278
563.632	8383
564.082	8347
564.532	8378
564.982	8303
565.432	8372
565.882	8323
566.332	8339
566.782	8386
567.232	8440
567.682	8393
568.131	8267
568.581	8353
569.031	8302
569.481	8235
569.93	8295
570.38	8255
570.83	8314
571.279	8230
571.729	8291
572.179	8248
572.628	8253
573.078	8249
573.527	8311
573.976	8217
574.426	8280
574.875	8317
575.325	8229
575.774	8484
576.223	8440
576.672	8320
577.122	8259
577.571	8311
578.02	8257
578.469	8185
578.918	8273
579.367	8318
579.817	8176
580.266	8298
580.715	8161
581.164	8308
581.613	8466
582.061	8316
582.51	8267
582.959	8321
583.408	8417
583.857	8281
584.306	8420
584.754	8400
585.203	8311
585.652	8422
586.1	8434
586.549	8465
586.998	8498
587.446	8433
587.895	8585
588.343	8659
588.792	8659
589.24	8674
589.689	8738
590.137	8704
590.586	8693
591.034	8760
591.482	8659
591.931	8552
592.379	8501
592.827	8421
593.275	8408
593.723	8515
594.172	8463
594.62	8421
595.068	8364
595.516	8205
595.964	8154
596.412	8227
596.86	8154
597.308	8246
597.756	8250
598.204	8250
598.651	8168
599.099	8253
599.547	8188
599.995	8169
600.443	8124
600.89	8318
601.338	8202
601.786	8170
602.233	8275
602.681	8161
603.128	8166
603.576	8251
604.023	8229
604.471	8175
604.918	8177
605.366	8312
605.813	8306
606.261	8330
606.708	8256
607.155	8296
607.603	8326
608.05	8225
608.497	8250
608.944	8346
609.391	8431
609.839	8304
610.286	8352
610.733	8326
611.18	8409
611.627	8405
612.074	8398
612.521	8527
612.968	8588
613.415	8636
613.861	8525
614.308	8492
614.755	8484
615.202	8741
615.649	8589
616.095	8550
616.542	8678
616.989	8639
617.435	8758
617.882	8712
618.329	8775
618.775	8682
619.222	8723
619.668	8761
620.115	8696
620.561	8699
621.007	8757
621.454	8766
621.9	8766
622.347	8727
622.793	8572
623.239	8721
623.685	8655
624.132	8690
624.578	8541
625.024	8643
625.47	8511
625.916	8611
626.362	8545
626.808	8488
627.254	8441
627.7	8537
628.146	8481
628.592	8513
629.038	8566
629.484	8473
629.93	8623
630.375	8470
630.821	8492
631.267	8438
631.713	8510
632.158	8480
632.604	8424
633.05	8349
633.495	8429
633.941	8379
634.386	8387
634.832	8371
635.277	8233
635.723	8412
636.168	8388
636.613	8360
637.059	8206
637.504	8331
637.949	8225
638.395	8352
638.84	8336
639.285	8353
639.73	8244
640.175	8287
640.621	8309
641.066	8217
641.511	8273
641.956	8422
642.401	8373
642.846	8189
643.291	8223
643.736	8376
644.181	8316
644.625	8439
645.07	8419
645.515	8398
645.96	8443
646.405	8401
646.849	8406
647.294	8474
647.739	8433
648.183	8407
648.628	8427
649.072	8447
649.517	8410
649.961	8409
650.406	8444
650.85	8326
651.295	8392
651.739	8440
652.184	8326
652.628	8311
653.072	8256
653.516	8220
653.961	8214
654.405	8252
654.849	8281
655.293	8304
655.737	8293
656.182	8248
656.626	8289
657.07	8305
657.514	8168
657.958	8242
658.402	8233
658.845	8295
659.289	8339
659.733	8242
660.177	8401
660.621	8296
661.065	8244
661.508	8253
661.952	8363
662.396	8211
662.839	8234
663.283	8216
663.727	8218
664.17	8249
664.614	8281
665.057	8362
665.501	8355
665.944	8323
666.388	8364
666.831	8456
667.274	8400
667.718	8484
668.161	8510
668.604	8458
669.048	8415
669.491	8473
669.934	8442
670.377	8387
670.82	8512
671.263	8491
671.706	8459
672.149	8458
672.592	8545
673.035	8434
673.478	8536
673.921	8502
674.364	8517
674.807	8438
675.25	8548
675.693	8425
676.135	8552
676.578	8556
677.021	8577
677.464	8607
677.906	8595
678.349	8520
678.791	8681
679.234	8653
679.676	8594
680.119	8757
680.561	8744
681.004	8833
681.446	8957
681.889	9187
682.331	9370
682.773	9559
683.216	9663
683.658	9664
684.1	9583
684.542	9519
684.985	9504
685.427	9419
685.869	9489
686.311	9413
686.753	9365
687.195	9546
687.637	9457
688.079	9675
688.521	9712
688.963	9657
689.405	9665
689.846	9644
690.288	9401
690.73	9278
691.172	9196
691.614	9031
692.055	8984
692.497	8881
692.939	8712
693.38	8451
693.822	8483
694.263	8449
694.705	8504
695.146	8380
695.588	8294
696.029	8195
696.471	8226
696.912	8103
697.353	8117
697.795	8014
698.236	8173
698.677	8188
699.118	8267
699.56	8208
700.001	8136
700.442	8101
700.883	8182
701.324	8095
701.765	8102
702.206	8142
702.647	7919
703.088	7977
703.529	8039
703.97	8043
704.411	8010
704.852	8063
705.292	7966
705.733	8015
706.174	8029
706.615	8061
707.055	8177
707.496	8255
707.937	8302
708.377	8275
708.818	8443
709.258	8366
709.699	8600
710.139	8689
710.58	8761
711.02	8880
711.461	9031
711.901	9175
712.341	9087
712.781	9217
713.222	9153
713.662	9054
714.102	9051
714.542	9016
714.983	8935
715.423	8839
715.863	8843
716.303	8735
716.743	8585
717.183	8379
717.623	8392
718.063	8328
718.503	8288
718.942	8167
719.382	8181
719.822	8129
720.262	8125
720.702	8059
721.141	7973
721.581	7922
722.021	8040
722.46	7987
722.9	7985
723.34	7931
723.779	8007
724.219	8044
724.658	8053
725.098	8081
725.537	8142
725.976	8302
726.416	8394
726.855	8440
727.294	8587
727.734	8737
728.173	8909
728.612	8939
729.051	8873
729.49	9020
729.93	8950
730.369	9028
730.808	9118
731.247	9348
731.686	9515
732.125	9693
732.564	9810
733.003	9724
733.441	9642
733.88	9612
734.319	9444
734.758	9105
735.197	8799
735.635	8712
736.074	8697
736.513	8625
736.951	8607
737.39	8501
737.829	8385
738.267	8444
738.706	8545
739.144	8538
739.583	8594
740.021	8691
740.459	8765
740.898	8732
741.336	8633
741.774	8760
742.213	8584
742.651	8446
743.089	8442
743.527	8307
743.966	8216
744.404	8132
744.842	8046
745.28	8035
745.718	7850
746.156	7909
746.594	7895
747.032	7783
747.47	7801
747.908	7849
748.345	7909
748.783	7934
749.221	8037
749.659	7981
750.097	8071
750.534	8010
750.972	7872
751.41	7931
751.847	8069
752.285	8104
752.722	7986
753.16	7991
753.597	8048
754.035	8107
754.472	8064
754.91	7925
755.347	7940
755.784	7829
756.222	7910
756.659	7768
757.096	7762
757.533	7831
757.97	8005
758.408	8011
758.845	8086
759.282	8337
759.719	8321
760.156	8482
760.593	8700
761.03	8717
761.467	8905
761.904	8999
762.341	9224
762.777	9758
763.214	10583
763.651	11948
764.088	14109
764.525	15497
764.961	14927
765.398	13202
765.835	11644
766.271	10418
766.708	9667
767.144	9096
767.581	8619
768.017	8328
768.454	8018
768.89	7977
769.327	7621
769.763	7524
770.199	7565
770.636	7373
771.072	7229
771.508	7140
771.944	7027
772.38	6968
772.817	6929
773.253	6917
773.689	6815
774.125	6752
774.561	6791
774.997	6655
775.433	6465
775.869	6588
776.305	6574
776.741	6556
777.176	6385
777.612	6400
778.048	6387
778.484	6394
778.919	6350
779.355	6349
779.791	6411
780.226	6347
780.662	6408
781.098	6507
781.533	6506
781.969	6406
782.404	6509
782.839	6493
783.275	6541
783.71	6533
784.146	6595
784.581	6546
785.016	6593
785.452	6548
785.887	6513
786.322	6590
786.757	6502
787.192	6704
787.627	6699
788.062	6971
788.497	7204
788.932	7663
789.367	7947
789.802	8094
790.237	8035
790.672	7733
791.107	7505
791.542	7367
791.977	7072
792.411	6936
792.846	6785
793.281	6768
793.716	6688
794.15	6650
794.585	6754
795.019	6788
795.454	6880
795.888	7030
796.323	7125
796.757	7391
797.192	7589
797.626	7661
798.061	7648
798.495	7606
798.929	7501
799.364	7323
799.798	7303
800.232	7193
800.666	7236
801.1	7020
801.534	7024
801.969	6915
802.403	6850
802.837	6852
803.271	6960
803.705	6853
804.138	6834
804.572	6871
805.006	6914
805.44	6937
805.874	6957
806.308	6990
806.741	7194
807.175	7143
807.609	7260
808.043	7306
808.476	7403
808.91	7420
809.343	7530
809.777	7416
810.21	7407
810.644	7552
811.077	7553
811.511	7497
811.944	7607
812.377	7781
812.811	7827
813.244	7988
813.677	8133
814.11	8231
814.544	8384
814.977	8383
815.41	8459
815.843	8613
816.276	8933
816.709	9231
817.142	9588
817.575	9953
818.008	10312
818.441	10788
818.874	11516
819.307	12349
819.739	13282
820.172	14648
820.605	16395
821.038	18774
821.47	21570
821.903	25399
822.336	31494
822.768	40987
823.201	50189
823.633	54664
824.066	51958
824.498	44984
824.931	37801
825.363	32341
825.796	28453
826.228	26336
826.66	25971
827.093	27147
827.525	30184
827.957	34135
828.389	35179
828.822	31274
829.254	25243
829.686	20424
830.118	17384
830.55	15122
830.982	14040
831.414	13066
831.846	12728
832.278	12716
832.71	12941
833.141	13614
833.573	15184
834.005	17724
834.437	21228
834.869	23375
835.3	22217
835.732	19053
836.164	15861
836.595	13371
837.027	11789
837.458	10799
837.89	9959
838.321	9388
838.753	8893
839.184	8700
839.616	8693
840.047	9114
840.478	10373
840.91	12256
841.341	13157
841.772	11870
842.203	9841
842.634	8349
843.066	7699
843.497	7085
843.928	6680
844.359	6381
844.79	6137
845.221	5949
845.652	5698
846.083	5624
846.513	5449
846.944	5439
847.375	5243
847.806	5179
848.237	5137
848.667	5129
849.098	5097
849.529	4962
849.959	4921
850.39	4949
850.821	4843
851.251	4965
851.682	4901
852.112	4864
852.543	4953
852.973	4878
853.403	4971
853.834	5011
854.264	4981
854.694	4925
855.125	4927
855.555	4930
855.985	4944
856.415	5001
856.845	4999
857.275	5122
857.706	5081
858.136	5165
858.566	5250
858.996	5302
859.425	5289
859.855	5259
860.285	5366
860.715	5437
861.145	5357
861.575	5442
862.004	5519
862.434	5554
