节点streppel_glasfaster-optik_halolux_150_MAYP1140501__0__581.txt的数据

Date: Tue Mar 01 19:39:16 GMT 2022
User: stone
Spectrometer: MAYP114050
触发模式: 0
积分时间 (秒): 7.200000E-3
Scans to average: 1
启用暗噪声校正: true
启用非线性校正: false
滑动平均宽度: 0
X轴模式: Wavelengths
Number of Pixels in Spectrum: 2068
>>>>>Begin Spectral Data<<<<<
198.571	729.67
199.043	-77.33
199.514	11.67
199.985	-0.33
200.456	55.67
200.928	59.67
201.399	59.67
201.87	86.67
202.341	89.67
202.812	103.67
203.283	97.67
203.754	97.67
204.225	90.67
204.697	91.67
205.168	102.67
205.638	98.67
206.109	87.67
206.58	103.67
207.051	98.67
207.522	99.67
207.993	102.67
208.464	87.67
208.935	88.67
209.405	86.67
209.876	98.67
210.347	95.67
210.818	81.67
211.288	100.67
211.759	99.67
212.229	93.67
212.7	92.67
213.171	81.67
213.641	84.67
214.112	91.67
214.582	100.67
215.053	94.67
215.523	102.67
215.993	81.67
216.464	81.67
216.934	87.67
217.405	94.67
217.875	88.67
218.345	100.67
218.815	82.67
219.286	90.67
219.756	98.67
220.226	93.67
220.696	84.67
221.166	90.67
221.636	83.67
222.107	91.67
222.577	91.67
223.047	93.67
223.517	79.67
223.987	76.67
224.457	91.67
224.927	89.67
225.396	95.67
225.866	81.67
226.336	85.67
226.806	85.67
227.276	79.67
227.746	92.67
228.215	93.67
228.685	91.67
229.155	87.67
229.625	89.67
230.094	95.67
230.564	82.67
231.033	80.67
231.503	83.67
231.973	95.67
232.442	70.67
232.912	96.67
233.381	71.67
233.851	84.67
234.32	82.67
234.789	84.67
235.259	95.67
235.728	90.67
236.197	95.67
236.667	78.67
237.136	80.67
237.605	79.67
238.074	96.67
238.544	89.67
239.013	95.67
239.482	76.67
239.951	102.67
240.42	89.67
240.889	81.67
241.358	83.67
241.827	83.67
242.296	89.67
242.765	83.67
243.234	82.67
243.703	77.67
244.172	92.67
244.641	65.67
245.11	73.67
245.579	86.67
246.047	77.67
246.516	69.67
246.985	90.67
247.454	90.67
247.922	98.67
248.391	79.67
248.86	89.67
249.328	76.67
249.797	80.67
250.265	91.67
250.734	84.67
251.202	92.67
251.671	77.67
252.139	70.67
252.608	78.67
253.076	93.67
253.544	84.67
254.013	86.67
254.481	75.67
254.949	78.67
255.418	69.67
255.886	75.67
256.354	84.67
256.822	75.67
257.291	76.67
257.759	87.67
258.227	77.67
258.695	78.67
259.163	83.67
259.631	65.67
260.099	76.67
260.567	80.67
261.035	84.67
261.503	75.67
261.971	78.67
262.439	72.67
262.907	76.67
263.375	80.67
263.842	80.67
264.31	74.67
264.778	78.67
265.246	86.67
265.713	63.67
266.181	86.67
266.649	87.67
267.116	92.67
267.584	75.67
268.052	82.67
268.519	81.67
268.987	94.67
269.454	74.67
269.922	73.67
270.389	79.67
270.856	81.67
271.324	79.67
271.791	90.67
272.259	78.67
272.726	83.67
273.193	90.67
273.66	88.67
274.128	97.67
274.595	104.67
275.062	84.67
275.529	82.67
275.996	102.67
276.464	90.67
276.931	90.67
277.398	91.67
277.865	86.67
278.332	87.67
278.799	101.67
279.266	82.67
279.733	108.67
280.2	110.67
280.667	93.67
281.133	102.67
281.6	117.67
282.067	87.67
282.534	94.67
283.001	106.67
283.467	96.67
283.934	107.67
284.401	98.67
284.867	116.67
285.334	107.67
285.801	105.67
286.267	105.67
286.734	104.67
287.2	104.67
287.667	101.67
288.133	106.67
288.6	108.67
289.066	115.67
289.532	112.67
289.999	111.67
290.465	112.67
290.931	114.67
291.398	97.67
291.864	120.67
292.33	113.67
292.796	136.67
293.263	118.67
293.729	112.67
294.195	123.67
294.661	121.67
295.127	120.67
295.593	141.67
296.059	119.67
296.525	115.67
296.991	128.67
297.457	131.67
297.923	123.67
298.389	130.67
298.855	146.67
299.321	138.67
299.786	146.67
300.252	131.67
300.718	133.67
301.184	139.67
301.65	146.67
302.115	148.67
302.581	142.67
303.047	151.67
303.512	146.67
303.978	155.67
304.443	159.67
304.909	152.67
305.374	141.67
305.84	149.67
306.305	159.67
306.771	171.67
307.236	133.67
307.701	152.67
308.167	181.67
308.632	167.67
309.097	156.67
309.563	175.67
310.028	165.67
310.493	172.67
310.958	182.67
311.424	171.67
311.889	170.67
312.354	170.67
312.819	163.67
313.284	179.67
313.749	162.67
314.214	177.67
314.679	167.67
315.144	166.67
315.609	169.67
316.074	172.67
316.539	174.67
317.004	162.67
317.468	186.67
317.933	189.67
318.398	188.67
318.863	189.67
319.327	188.67
319.792	189.67
320.257	204.67
320.721	194.67
321.186	206.67
321.651	197.67
322.115	206.67
322.58	207.67
323.044	191.67
323.509	206.67
323.973	192.67
324.438	195.67
324.902	223.67
325.366	181.67
325.831	215.67
326.295	197.67
326.759	202.67
327.224	216.67
327.688	233.67
328.152	232.67
328.616	233.67
329.081	212.67
329.545	231.67
330.009	240.67
330.473	226.67
330.937	238.67
331.401	243.67
331.865	272.67
332.329	253.67
332.793	241.67
333.257	271.67
333.721	265.67
334.185	280.67
334.649	292.67
335.112	276.67
335.576	288.67
336.04	277.67
336.504	301.67
336.967	292.67
337.431	294.67
337.895	314.67
338.358	311.67
338.822	322.67
339.286	317.67
339.749	308.67
340.213	328.67
340.676	401.67
341.14	357.67
341.603	377.67
342.067	383.67
342.53	427.67
342.993	428.67
343.457	460.67
343.92	464.67
344.383	511.67
344.847	574.67
345.31	578.67
345.773	617.67
346.236	627.67
346.699	612.67
347.163	675.67
347.626	702.67
348.089	720.67
348.552	697.67
349.015	755.67
349.478	718.67
349.941	772.67
350.404	765.67
350.867	761.67
351.33	788.67
351.793	783.67
352.255	822.67
352.718	810.67
353.181	789.67
353.644	812.67
354.107	774.67
354.569	819.67
355.032	796.67
355.495	780.67
355.957	761.67
356.42	788.67
356.882	781.67
357.345	761.67
357.808	843.67
358.27	878.67
358.733	937.67
359.195	985.67
359.657	1038.67
360.12	1087.67
360.582	1188.67
361.045	1201.67
361.507	1264.67
361.969	1346.67
362.431	1364.67
362.894	1406.67
363.356	1419.67
363.818	1479.67
364.28	1471.67
364.742	1443.67
365.204	1447.67
365.667	1444.67
366.129	1431.67
366.591	1370.67
367.053	1329.67
367.515	1293.67
367.977	1252.67
368.438	1283.67
368.9	1255.67
369.362	1267.67
369.824	1325.67
370.286	1397.67
370.748	1471.67
371.209	1553.67
371.671	1703.67
372.133	1776.67
372.594	1873.67
373.056	1992.67
373.518	2101.67
373.979	2155.67
374.441	2288.67
374.902	2340.67
375.364	2383.67
375.825	2436.67
376.287	2541.67
376.748	2525.67
377.21	2525.67
377.671	2604.67
378.133	2694.67
378.594	2781.67
379.055	2753.67
379.516	2821.67
379.978	2810.67
380.439	2842.67
380.9	2908.67
381.361	2881.67
381.822	2898.67
382.284	2924.67
382.745	2954.67
383.206	2909.67
383.667	2867.67
384.128	2863.67
384.589	2900.67
385.05	2814.67
385.511	2922.67
385.971	2875.67
386.432	2947.67
386.893	2973.67
387.354	3062.67
387.815	3223.67
388.276	3223.67
388.736	3367.67
389.197	3479.67
389.658	3604.67
390.118	3596.67
390.579	3743.67
391.04	3869.67
391.5	3947.67
391.961	3964.67
392.421	4045.67
392.882	4108.67
393.342	4128.67
393.803	4156.67
394.263	4246.67
394.723	4324.67
395.184	4386.67
395.644	4362.67
396.104	4477.67
396.565	4484.67
397.025	4488.67
397.485	4569.67
397.945	4637.67
398.406	4728.67
398.866	4781.67
399.326	4851.67
399.786	4931.67
400.246	4938.67
400.706	4951.67
401.166	4943.67
401.626	4967.67
402.086	5019.67
402.546	5090.67
403.006	5154.67
403.466	5114.67
403.926	5181.67
404.385	5203.67
404.845	5284.67
405.305	5316.67
405.765	5402.67
406.224	5372.67
406.684	5435.67
407.144	5483.67
407.603	5606.67
408.063	5598.67
408.523	5654.67
408.982	5690.67
409.442	5801.67
409.901	5866.67
410.361	5916.67
410.82	6030.67
411.28	6025.67
411.739	6127.67
412.198	6197.67
412.658	6329.67
413.117	6349.67
413.576	6486.67
414.035	6449.67
414.495	6490.67
414.954	6719.67
415.413	6714.67
415.872	6718.67
416.331	6794.67
416.79	6943.67
417.249	6899.67
417.709	7027.67
418.168	7093.67
418.627	7197.67
419.085	7197.67
419.544	7341.67
420.003	7441.67
420.462	7466.67
420.921	7517.67
421.38	7581.67
421.839	7633.67
422.297	7665.67
422.756	7783.67
423.215	7951.67
423.674	7866.67
424.132	7908.67
424.591	7997.67
425.049	8075.67
425.508	8168.67
425.967	8245.67
426.425	8388.67
426.884	8489.67
427.342	8465.67
427.8	8633.67
428.259	8644.67
428.717	8683.67
429.176	8744.67
429.634	8857.67
430.092	8889.67
430.551	9001.67
431.009	9084.67
431.467	9145.67
431.925	9207.67
432.383	9334.67
432.841	9370.67
433.3	9463.67
433.758	9546.67
434.216	9623.67
434.674	9707.67
435.132	9725.67
435.59	9796.67
436.048	9905.67
436.506	10050.67
436.963	10081.67
437.421	10224.67
437.879	10217.67
438.337	10415.67
438.795	10307.67
439.253	10380.67
439.71	10515.67
440.168	10544.67
440.626	10778.67
441.083	10826.67
441.541	10965.67
441.999	10920.67
442.456	11007.67
442.914	11174.67
443.371	11165.67
443.829	11318.67
444.286	11554.67
444.743	11438.67
445.201	11622.67
445.658	11681.67
446.116	11738.67
446.573	11789.67
447.03	11869.67
447.487	12007.67
447.945	11932.67
448.402	12070.67
448.859	12284.67
449.316	12334.67
449.773	12276.67
450.23	12486.67
450.688	12480.67
451.145	12590.67
451.602	12732.67
452.059	12940.67
452.516	13043.67
452.972	12907.67
453.429	13200.67
453.886	13159.67
454.343	13244.67
454.8	13253.67
455.257	13449.67
455.713	13538.67
456.17	13395.67
456.627	13802.67
457.084	13963.67
457.54	13929.67
457.997	13966.67
458.454	14124.67
458.91	14157.67
459.367	14225.67
459.823	14345.67
460.28	14506.67
460.736	14525.67
461.193	14645.67
461.649	14831.67
462.105	14914.67
462.562	14975.67
463.018	15144.67
463.474	15133.67
463.931	15253.67
464.387	15527.67
464.843	15657.67
465.299	15699.67
465.755	15698.67
466.212	15938.67
466.668	15976.67
467.124	16104.67
467.58	16108.67
468.036	16197.67
468.492	16215.67
468.948	16425.67
469.404	16581.67
469.86	16766.67
470.316	16748.67
470.771	16805.67
471.227	17108.67
471.683	17048.67
472.139	17257.67
472.595	17279.67
473.05	17304.67
473.506	17559.67
473.962	17588.67
474.417	17691.67
474.873	17760.67
475.328	17726.67
475.784	18029.67
476.24	18008.67
476.695	18136.67
477.15	18300.67
477.606	18378.67
478.061	18494.67
478.517	18583.67
478.972	18557.67
479.427	18748.67
479.883	18923.67
480.338	19021.67
480.793	19130.67
481.248	19136.67
481.704	19185.67
482.159	19330.67
482.614	19463.67
483.069	19586.67
483.524	19588.67
483.979	19699.67
484.434	19877.67
484.889	19907.67
485.344	20168.67
485.799	20280.67
486.254	20187.67
486.709	20491.67
487.164	20522.67
487.619	20710.67
488.073	20777.67
488.528	20965.67
488.983	20811.67
489.438	21007.67
489.892	21155.67
490.347	21111.67
490.802	21280.67
491.256	21374.67
491.711	21608.67
492.165	21537.67
492.62	21707.67
493.074	21951.67
493.529	21903.67
493.983	22012.67
494.438	22194.67
494.892	22172.67
495.347	22305.67
495.801	22396.67
496.255	22344.67
496.709	22601.67
497.164	22731.67
497.618	22703.67
498.072	22868.67
498.526	22932.67
498.98	23076.67
499.435	23215.67
499.889	23043.67
500.343	23201.67
500.797	23325.67
501.251	23476.67
501.705	23496.67
502.159	23773.67
502.612	23765.67
503.066	23825.67
503.52	24320.67
503.974	24223.67
504.428	24285.67
504.882	24321.67
505.335	24542.67
505.789	24593.67
506.243	24727.67
506.696	24975.67
507.15	25066.67
507.604	25119.67
508.057	25188.67
508.511	25375.67
508.964	25480.67
509.418	25572.67
509.871	25749.67
510.325	25750.67
510.778	25771.67
511.231	26150.67
511.685	26475.67
512.138	26509.67
512.591	26608.67
513.045	26827.67
513.498	26686.67
513.951	26982.67
514.404	27154.67
514.857	27262.67
515.311	27349.67
515.764	27527.67
516.217	27725.67
516.67	27701.67
517.123	27903.67
517.576	27823.67
518.029	28047.67
518.482	28193.67
518.935	28367.67
519.388	28443.67
519.84	28737.67
520.293	28689.67
520.746	28876.67
521.199	28941.67
521.651	28922.67
522.104	29211.67
522.557	29233.67
523.009	29400.67
523.462	29590.67
523.915	29689.67
524.367	29805.67
524.82	30023.67
525.272	30019.67
525.725	30348.67
526.177	30464.67
526.63	30481.67
527.082	30505.67
527.534	30637.67
527.987	30855.67
528.439	30886.67
528.891	30977.67
529.344	31263.67
529.796	31248.67
530.248	31500.67
530.7	31466.67
531.152	31662.67
531.604	31821.67
532.057	31867.67
532.509	31978.67
532.961	32251.67
533.413	32334.67
533.865	32269.67
534.317	32488.67
534.768	32616.67
535.22	32829.67
535.672	32749.67
536.124	32859.67
536.576	33051.67
537.028	33404.67
537.479	33232.67
537.931	33229.67
538.383	33409.67
538.834	33600.67
539.286	33690.67
539.738	33983.67
540.189	34041.67
540.641	34040.67
541.092	33880.67
541.544	34131.67
541.995	34412.67
542.447	34581.67
542.898	34602.67
543.349	34748.67
543.801	35055.67
544.252	35125.67
544.703	35173.67
545.155	35067.67
545.606	34989.67
546.057	35092.67
546.508	35388.67
546.959	35759.67
547.411	35740.67
547.862	35777.67
548.313	35965.67
548.764	35961.67
549.215	36007.67
549.666	36054.67
550.117	36258.67
550.568	36458.67
551.019	36704.67
551.469	36516.67
551.92	36760.67
552.371	36873.67
552.822	37017.67
553.273	37220.67
553.723	37417.67
554.174	37298.67
554.625	37124.67
555.075	37550.67
555.526	37697.67
555.977	37551.67
556.427	37694.67
556.878	37813.67
557.328	37777.67
557.779	37983.67
558.229	38506.67
558.679	38136.67
559.13	38274.67
559.58	38379.67
560.031	38496.67
560.481	38719.67
560.931	38884.67
561.381	39261.67
561.832	39396.67
562.282	39521.67
562.732	39449.67
563.182	39454.67
563.632	39427.67
564.082	39287.67
564.532	39552.67
564.982	39782.67
565.432	39765.67
565.882	40033.67
566.332	40199.67
566.782	40156.67
567.232	40183.67
567.682	40309.67
568.131	40535.67
568.581	40476.67
569.031	40680.67
569.481	41089.67
569.93	41298.67
570.38	41272.67
570.83	41207.67
571.279	41320.67
571.729	41469.67
572.179	41511.67
572.628	41631.67
573.078	41956.67
573.527	41787.67
573.976	41572.67
574.426	41945.67
574.875	42143.67
575.325	42061.67
575.774	42429.67
576.223	42290.67
576.672	42591.67
577.122	42852.67
577.571	42927.67
578.02	43131.67
578.469	42995.67
578.918	43159.67
579.367	43120.67
579.817	43218.67
580.266	43259.67
580.715	43399.67
581.164	43425.67
581.613	43315.67
582.061	43529.67
582.51	43878.67
582.959	44348.67
583.408	44281.67
583.857	44493.67
584.306	44446.67
584.754	44618.67
585.203	44542.67
585.652	44823.67
586.1	44917.67
586.549	45213.67
586.998	45139.67
587.446	45273.67
587.895	45168.67
588.343	45151.67
588.792	45175.67
589.24	45323.67
589.689	45521.67
590.137	45766.67
590.586	45673.67
591.034	46001.67
591.482	45858.67
591.931	46103.67
592.379	46121.67
592.827	46440.67
593.275	46266.67
593.723	46540.67
594.172	46636.67
594.62	46776.67
595.068	46742.67
595.516	46832.67
595.964	46811.67
596.412	46710.67
596.86	46904.67
597.308	47211.67
597.756	47184.67
598.204	47478.67
598.651	47463.67
599.099	47596.67
599.547	47529.67
599.995	47511.67
600.443	47675.67
600.89	47844.67
601.338	47996.67
601.786	48079.67
602.233	48275.67
602.681	48462.67
603.128	48892.67
603.576	48667.67
604.023	48815.67
604.471	48635.67
604.918	48868.67
605.366	49005.67
605.813	49187.67
606.261	49238.67
606.708	49365.67
607.155	49460.67
607.603	49656.67
608.05	49788.67
608.497	50200.67
608.944	50108.67
609.391	50237.67
609.839	50239.67
610.286	50429.67
610.733	50552.67
611.18	50606.67
611.627	51040.67
612.074	51017.67
612.521	51267.67
612.968	50987.67
613.415	51093.67
613.861	51371.67
614.308	51111.67
614.755	51414.67
615.202	51517.67
615.649	51422.67
616.095	51567.67
616.542	51520.67
616.989	51899.67
617.435	52183.67
617.882	51943.67
618.329	52209.67
618.775	52197.67
619.222	51930.67
619.668	51869.67
620.115	51940.67
620.561	52245.67
621.007	52330.67
621.454	52343.67
621.9	52191.67
622.347	52463.67
622.793	52440.67
623.239	52811.67
623.685	52814.67
624.132	52889.67
624.578	52663.67
625.024	53020.67
625.47	53295.67
625.916	53229.67
626.362	53314.67
626.808	53171.67
627.254	53160.67
627.7	53397.67
628.146	53335.67
628.592	53185.67
629.038	53387.67
629.484	53875.67
629.93	53947.67
630.375	54015.67
630.821	54063.67
631.267	54082.67
631.713	54236.67
632.158	54156.67
632.604	54253.67
633.05	54811.67
633.495	54577.67
633.941	54623.67
634.386	54922.67
634.832	54913.67
635.277	54729.67
635.723	55179.67
636.168	55337.67
636.613	55021.67
637.059	54732.67
637.504	55056.67
637.949	55403.67
638.395	55363.67
638.84	55333.67
639.285	55630.67
639.73	55456.67
640.175	55639.67
640.621	55636.67
641.066	55919.67
641.511	56067.67
641.956	55761.67
642.401	55809.67
642.846	55883.67
643.291	55457.67
643.736	55365.67
644.181	55783.67
644.625	56045.67
645.07	55873.67
645.515	55988.67
645.96	56343.67
646.405	56428.67
646.849	56080.67
647.294	56003.67
647.739	56229.67
648.183	55824.67
648.628	55598.67
649.072	55544.67
649.517	55887.67
649.961	56108.67
650.406	56595.67
650.85	56543.67
651.295	56193.67
651.739	56233.67
652.184	56024.67
652.628	55731.67
653.072	55488.67
653.516	56082.67
653.961	55836.67
654.405	55959.67
654.849	56092.67
655.293	55758.67
655.737	55801.67
656.182	55798.67
656.626	55494.67
657.07	55643.67
657.514	55373.67
657.958	55843.67
658.402	55976.67
658.845	56085.67
659.289	55570.67
659.733	55376.67
660.177	55157.67
660.621	55326.67
661.065	55311.67
661.508	55317.67
661.952	55155.67
662.396	55100.67
662.839	55119.67
663.283	54953.67
663.727	54947.67
664.17	54651.67
664.614	54705.67
665.057	54963.67
665.501	54919.67
665.944	54753.67
666.388	54575.67
666.831	54864.67
667.274	54703.67
667.718	54529.67
668.161	54566.67
668.604	54693.67
669.048	54680.67
669.491	54138.67
669.934	54011.67
670.377	53973.67
670.82	54017.67
671.263	53789.67
671.706	54070.67
672.149	54194.67
672.592	54002.67
673.035	53919.67
673.478	53912.67
673.921	53913.67
674.364	53848.67
674.807	53336.67
675.25	53201.67
675.693	53138.67
676.135	53097.67
676.578	53382.67
677.021	53421.67
677.464	53162.67
677.906	52685.67
678.349	52540.67
678.791	52766.67
679.234	52914.67
679.676	52877.67
680.119	52703.67
680.561	52552.67
681.004	52390.67
681.446	52429.67
681.889	52514.67
682.331	52386.67
682.773	52110.67
683.216	52269.67
683.658	52221.67
684.1	52266.67
684.542	52325.67
684.985	52371.67
685.427	52329.67
685.869	52212.67
686.311	52220.67
686.753	52123.67
687.195	52013.67
687.637	51664.67
688.079	51613.67
688.521	51399.67
688.963	51389.67
689.405	51557.67
689.846	51913.67
690.288	52193.67
690.73	52551.67
691.172	52326.67
691.614	52000.67
692.055	51516.67
692.497	51653.67
692.939	51567.67
693.38	51515.67
693.822	51491.67
694.263	51455.67
694.705	51344.67
695.146	51651.67
695.588	51443.67
696.029	51299.67
696.471	51368.67
696.912	51008.67
697.353	50829.67
697.795	50732.67
698.236	50801.67
698.677	50820.67
699.118	51055.67
699.56	51191.67
700.001	51743.67
700.442	51491.67
700.883	51294.67
701.324	51300.67
701.765	51315.67
702.206	51424.67
702.647	51474.67
703.088	51447.67
703.529	51163.67
703.97	51304.67
704.411	51150.67
704.852	51623.67
705.292	51279.67
705.733	50994.67
706.174	51096.67
706.615	50982.67
707.055	50853.67
707.496	50912.67
707.937	51100.67
708.377	51319.67
708.818	51536.67
709.258	51287.67
709.699	51244.67
710.139	50794.67
710.58	50651.67
711.02	50868.67
711.461	50837.67
711.901	50388.67
712.341	50207.67
712.781	50245.67
713.222	50533.67
713.662	50834.67
714.102	50504.67
714.542	50070.67
714.983	49831.67
715.423	49981.67
715.863	50299.67
716.303	50621.67
716.743	50155.67
717.183	50299.67
717.623	50136.67
718.063	50265.67
718.503	49534.67
718.942	49513.67
719.382	49424.67
719.822	49150.67
720.262	49173.67
720.702	49327.67
721.141	49145.67
721.581	49161.67
722.021	48909.67
722.46	49001.67
722.9	48949.67
723.34	48833.67
723.779	48949.67
724.219	48895.67
724.658	48572.67
725.098	48127.67
