Data from torch2_MAYP1140501__0__11-52-08-932.txt Node

Date: Fri Mar 25 11:52:08 GMT 2022
User: stone
Spectrometer: MAYP114050
Trigger mode: 0
Integration Time (sec): 7.200000E-3
Scans to average: 1
Electric dark correction enabled: true
Nonlinearity correction enabled: false
Boxcar width: 0
XAxis mode: Wavelengths
Number of Pixels in Spectrum: 2068
>>>>>Begin Spectral Data<<<<<
198.571	711.17
199.043	-72.83
199.514	15.17
199.985	-2.83
200.456	101.17
200.928	110.17
201.399	109.17
201.87	139.17
202.341	166.17
202.812	159.17
203.283	162.17
203.754	170.17
204.225	156.17
204.697	146.17
205.168	176.17
205.638	156.17
206.109	135.17
206.58	153.17
207.051	148.17
207.522	153.17
207.993	154.17
208.464	138.17
208.935	162.17
209.405	174.17
209.876	142.17
210.347	159.17
210.818	165.17
211.288	151.17
211.759	151.17
212.229	144.17
212.7	156.17
213.171	143.17
213.641	147.17
214.112	138.17
214.582	149.17
215.053	146.17
215.523	128.17
215.993	148.17
216.464	145.17
216.934	132.17
217.405	131.17
217.875	135.17
218.345	121.17
218.815	136.17
219.286	142.17
219.756	133.17
220.226	149.17
220.696	123.17
221.166	147.17
221.636	133.17
222.107	160.17
222.577	137.17
223.047	135.17
223.517	137.17
223.987	131.17
224.457	135.17
224.927	124.17
225.396	138.17
225.866	146.17
226.336	137.17
226.806	120.17
227.276	115.17
227.746	151.17
228.215	142.17
228.685	148.17
229.155	143.17
229.625	145.17
230.094	166.17
230.564	145.17
231.033	168.17
231.503	134.17
231.973	163.17
232.442	151.17
232.912	135.17
233.381	145.17
233.851	145.17
234.32	157.17
234.789	163.17
235.259	164.17
235.728	158.17
236.197	157.17
236.667	138.17
237.136	145.17
237.605	155.17
238.074	136.17
238.544	147.17
239.013	149.17
239.482	157.17
239.951	153.17
240.42	156.17
240.889	159.17
241.358	162.17
241.827	146.17
242.296	136.17
242.765	161.17
243.234	138.17
243.703	153.17
244.172	160.17
244.641	143.17
245.11	150.17
245.579	143.17
246.047	131.17
246.516	136.17
246.985	157.17
247.454	137.17
247.922	138.17
248.391	144.17
248.86	144.17
249.328	149.17
249.797	143.17
250.265	131.17
250.734	125.17
251.202	135.17
251.671	144.17
252.139	109.17
252.608	130.17
253.076	134.17
253.544	124.17
254.013	125.17
254.481	117.17
254.949	131.17
255.418	127.17
255.886	135.17
256.354	135.17
256.822	149.17
257.291	123.17
257.759	115.17
258.227	104.17
258.695	123.17
259.163	110.17
259.631	127.17
260.099	115.17
260.567	131.17
261.035	135.17
261.503	123.17
261.971	115.17
262.439	120.17
262.907	125.17
263.375	125.17
263.842	123.17
264.31	123.17
264.778	129.17
265.246	123.17
265.713	115.17
266.181	110.17
266.649	124.17
267.116	111.17
267.584	106.17
268.052	92.17
268.519	123.17
268.987	108.17
269.454	110.17
269.922	120.17
270.389	103.17
270.856	101.17
271.324	107.17
271.791	118.17
272.259	121.17
272.726	118.17
273.193	107.17
273.66	107.17
274.128	92.17
274.595	104.17
275.062	107.17
275.529	95.17
275.996	92.17
276.464	104.17
276.931	107.17
277.398	74.17
277.865	115.17
278.332	99.17
278.799	107.17
279.266	107.17
279.733	83.17
280.2	96.17
280.667	93.17
281.133	89.17
281.6	69.17
282.067	96.17
282.534	79.17
283.001	82.17
283.467	76.17
283.934	99.17
284.401	82.17
284.867	85.17
285.334	87.17
285.801	82.17
286.267	93.17
286.734	71.17
287.2	89.17
287.667	108.17
288.133	76.17
288.6	68.17
289.066	90.17
289.532	90.17
289.999	80.17
290.465	94.17
290.931	84.17
291.398	93.17
291.864	65.17
292.33	84.17
292.796	79.17
293.263	90.17
293.729	67.17
294.195	67.17
294.661	86.17
295.127	61.17
295.593	86.17
296.059	69.17
296.525	66.17
296.991	71.17
297.457	77.17
297.923	78.17
298.389	72.17
298.855	67.17
299.321	66.17
299.786	78.17
300.252	62.17
300.718	71.17
301.184	62.17
301.65	75.17
302.115	69.17
302.581	75.17
303.047	57.17
303.512	70.17
303.978	60.17
304.443	54.17
304.909	67.17
305.374	62.17
305.84	57.17
306.305	62.17
306.771	75.17
307.236	61.17
307.701	48.17
308.167	58.17
308.632	64.17
309.097	53.17
309.563	50.17
310.028	71.17
310.493	70.17
310.958	67.17
311.424	55.17
311.889	63.17
312.354	57.17
312.819	67.17
313.284	68.17
313.749	55.17
314.214	53.17
314.679	46.17
315.144	60.17
315.609	67.17
316.074	67.17
316.539	54.17
317.004	63.17
317.468	51.17
317.933	46.17
318.398	51.17
318.863	68.17
319.327	43.17
319.792	51.17
320.257	37.17
320.721	62.17
321.186	60.17
321.651	76.17
322.115	53.17
322.58	68.17
323.044	60.17
323.509	60.17
323.973	56.17
324.438	63.17
324.902	63.17
325.366	59.17
325.831	58.17
326.295	46.17
326.759	60.17
327.224	45.17
327.688	56.17
328.152	48.17
328.616	49.17
329.081	54.17
329.545	48.17
330.009	53.17
330.473	53.17
330.937	55.17
331.401	39.17
331.865	55.17
332.329	58.17
332.793	65.17
333.257	56.17
333.721	71.17
334.185	67.17
334.649	44.17
335.112	55.17
335.576	51.17
336.04	64.17
336.504	38.17
336.967	48.17
337.431	62.17
337.895	69.17
338.358	51.17
338.822	65.17
339.286	61.17
339.749	59.17
340.213	51.17
340.676	76.17
341.14	54.17
341.603	55.17
342.067	58.17
342.53	59.17
342.993	51.17
343.457	55.17
343.92	50.17
344.383	65.17
344.847	51.17
345.31	53.17
345.773	51.17
346.236	53.17
346.699	54.17
347.163	63.17
347.626	62.17
348.089	67.17
348.552	45.17
349.015	65.17
349.478	49.17
349.941	56.17
350.404	59.17
350.867	53.17
351.33	60.17
351.793	54.17
352.255	48.17
352.718	52.17
353.181	67.17
353.644	47.17
354.107	55.17
354.569	65.17
355.032	46.17
355.495	52.17
355.957	68.17
356.42	54.17
356.882	60.17
357.345	50.17
357.808	48.17
358.27	68.17
358.733	64.17
359.195	68.17
359.657	48.17
360.12	55.17
360.582	65.17
361.045	71.17
361.507	66.17
361.969	72.17
362.431	57.17
362.894	62.17
363.356	48.17
363.818	64.17
364.28	51.17
364.742	59.17
365.204	67.17
365.667	59.17
366.129	67.17
366.591	71.17
367.053	60.17
367.515	65.17
367.977	63.17
368.438	61.17
368.9	67.17
369.362	79.17
369.824	75.17
370.286	71.17
370.748	70.17
371.209	68.17
371.671	75.17
372.133	92.17
372.594	67.17
373.056	97.17
373.518	87.17
373.979	89.17
374.441	99.17
374.902	102.17
375.364	97.17
375.825	110.17
376.287	115.17
376.748	138.17
377.21	126.17
377.671	124.17
378.133	139.17
378.594	143.17
379.055	149.17
379.516	155.17
379.978	203.17
380.439	223.17
380.9	203.17
381.361	256.17
381.822	261.17
382.284	289.17
382.745	308.17
383.206	329.17
383.667	370.17
384.128	400.17
384.589	441.17
385.05	463.17
385.511	507.17
385.971	573.17
386.432	585.17
386.893	635.17
387.354	704.17
387.815	736.17
388.276	756.17
388.736	838.17
389.197	864.17
389.658	967.17
390.118	1033.17
390.579	1119.17
391.04	1150.17
391.5	1209.17
391.961	1302.17
392.421	1371.17
392.882	1444.17
393.342	1490.17
393.803	1540.17
394.263	1607.17
394.723	1667.17
395.184	1807.17
395.644	1831.17
396.104	1930.17
396.565	1993.17
397.025	1979.17
397.485	2021.17
397.945	2139.17
398.406	2180.17
398.866	2228.17
399.326	2341.17
399.786	2352.17
400.246	2419.17
400.706	2481.17
401.166	2593.17
401.626	2647.17
402.086	2697.17
402.546	2718.17
403.006	2782.17
403.466	2817.17
403.926	2883.17
404.385	2889.17
404.845	3023.17
405.305	2998.17
405.765	3091.17
406.224	3164.17
406.684	3199.17
407.144	3199.17
407.603	3302.17
408.063	3337.17
408.523	3340.17
408.982	3415.17
409.442	3414.17
409.901	3493.17
410.361	3531.17
410.82	3579.17
411.28	3591.17
411.739	3705.17
412.198	3754.17
412.658	3831.17
413.117	3875.17
413.576	3824.17
414.035	3978.17
414.495	3981.17
414.954	3928.17
415.413	4027.17
415.872	4017.17
416.331	4098.17
416.79	4174.17
417.249	4234.17
417.709	4240.17
418.168	4261.17
418.627	4283.17
419.085	4385.17
419.544	4467.17
420.003	4445.17
420.462	4485.17
420.921	4553.17
421.38	4627.17
421.839	4647.17
422.297	4753.17
422.756	4785.17
423.215	4883.17
423.674	4865.17
424.132	4878.17
424.591	4937.17
425.049	4981.17
425.508	5017.17
425.967	5053.17
426.425	5085.17
426.884	5235.17
427.342	5253.17
427.8	5199.17
428.259	5374.17
428.717	5499.17
429.176	5511.17
429.634	5481.17
430.092	5582.17
430.551	5577.17
431.009	5658.17
431.467	5671.17
431.925	5723.17
432.383	5792.17
432.841	5891.17
433.3	5942.17
433.758	5941.17
434.216	6048.17
434.674	6109.17
435.132	6152.17
435.59	6200.17
436.048	6234.17
436.506	6368.17
436.963	6327.17
437.421	6356.17
437.879	6414.17
438.337	6505.17
438.795	6554.17
439.253	6561.17
439.71	6665.17
440.168	6780.17
440.626	6784.17
441.083	6814.17
441.541	6922.17
441.999	6986.17
442.456	7048.17
442.914	7098.17
443.371	7116.17
443.829	7303.17
444.286	7305.17
444.743	7327.17
445.201	7419.17
445.658	7473.17
446.116	7594.17
446.573	7563.17
447.03	7658.17
447.487	7705.17
447.945	7834.17
448.402	7858.17
448.859	7835.17
449.316	7955.17
449.773	7950.17
450.23	8018.17
450.688	8148.17
451.145	8080.17
451.602	8187.17
452.059	8357.17
452.516	8454.17
452.972	8430.17
453.429	8490.17
453.886	8606.17
454.343	8708.17
454.8	8814.17
455.257	8787.17
455.713	8737.17
456.17	8866.17
456.627	8951.17
457.084	8974.17
457.54	9122.17
457.997	9112.17
458.454	9300.17
458.91	9333.17
459.367	9433.17
459.823	9535.17
460.28	9595.17
460.736	9668.17
461.193	9695.17
461.649	9699.17
462.105	9846.17
462.562	9936.17
463.018	9876.17
463.474	10125.17
463.931	9984.17
464.387	10191.17
464.843	10238.17
465.299	10323.17
465.755	10366.17
466.212	10541.17
466.668	10485.17
467.124	10582.17
467.58	10698.17
468.036	10676.17
468.492	10763.17
468.948	10845.17
469.404	10905.17
469.86	10952.17
470.316	11102.17
470.771	11086.17
471.227	11408.17
471.683	11344.17
472.139	11397.17
472.595	11536.17
473.05	11597.17
473.506	11666.17
473.962	11697.17
474.417	11789.17
474.873	11892.17
475.328	11984.17
475.784	11849.17
476.24	12051.17
476.695	12172.17
477.15	12288.17
477.606	12419.17
478.061	12441.17
478.517	12565.17
478.972	12515.17
479.427	12660.17
479.883	12742.17
480.338	12924.17
480.793	12993.17
481.248	12915.17
481.704	12987.17
482.159	13046.17
482.614	13251.17
483.069	13270.17
483.524	13319.17
483.979	13495.17
484.434	13499.17
484.889	13589.17
485.344	13752.17
485.799	13900.17
486.254	13949.17
486.709	13932.17
487.164	14006.17
487.619	14125.17
488.073	14270.17
488.528	14294.17
488.983	14405.17
489.438	14448.17
489.892	14606.17
490.347	14581.17
490.802	14715.17
491.256	14839.17
491.711	14959.17
492.165	15116.17
492.62	15145.17
493.074	15144.17
493.529	15266.17
493.983	15307.17
494.438	15392.17
494.892	15577.17
495.347	15660.17
495.801	15697.17
496.255	15719.17
496.709	16043.17
497.164	15980.17
497.618	16021.17
498.072	15969.17
498.526	16125.17
498.98	16256.17
499.435	16319.17
499.889	16370.17
500.343	16542.17
500.797	16552.17
501.251	16655.17
501.705	16788.17
502.159	16809.17
502.612	16785.17
503.066	16977.17
503.52	17065.17
503.974	17171.17
504.428	17219.17
504.882	17361.17
505.335	17517.17
505.789	17555.17
506.243	17640.17
506.696	17764.17
507.15	17836.17
507.604	17888.17
508.057	18065.17
508.511	18086.17
508.964	18233.17
509.418	18264.17
509.871	18421.17
510.325	18421.17
510.778	18477.17
511.231	18723.17
511.685	18694.17
512.138	18927.17
512.591	18964.17
513.045	19179.17
513.498	19164.17
513.951	19287.17
514.404	19367.17
514.857	19684.17
515.311	19792.17
515.764	19817.17
516.217	19939.17
516.67	19875.17
517.123	20112.17
517.576	19991.17
518.029	20240.17
518.482	20195.17
518.935	20469.17
519.388	20532.17
519.84	20707.17
520.293	20740.17
520.746	20751.17
521.199	20837.17
521.651	21056.17
522.104	21115.17
522.557	21175.17
523.009	21418.17
523.462	21394.17
523.915	21595.17
524.367	21657.17
524.82	21867.17
525.272	21930.17
525.725	21971.17
526.177	22214.17
526.63	22248.17
527.082	22325.17
527.534	22174.17
527.987	22504.17
528.439	22483.17
528.891	22715.17
529.344	22859.17
529.796	23094.17
530.248	22820.17
530.7	23043.17
531.152	23220.17
531.604	23371.17
532.057	23315.17
532.509	23499.17
532.961	23621.17
533.413	23734.17
533.865	23795.17
534.317	23946.17
534.768	24182.17
535.22	24142.17
535.672	24151.17
536.124	24278.17
536.576	24415.17
537.028	24506.17
537.479	24592.17
537.931	24547.17
538.383	24847.17
538.834	24867.17
539.286	24982.17
539.738	25233.17
540.189	25282.17
540.641	25356.17
541.092	25324.17
541.544	25443.17
541.995	25475.17
542.447	25727.17
542.898	25808.17
543.349	25928.17
543.801	25979.17
544.252	26328.17
544.703	26204.17
545.155	26299.17
545.606	26412.17
546.057	26446.17
546.508	26597.17
546.959	26816.17
547.411	26888.17
547.862	26880.17
548.313	27100.17
548.764	27160.17
549.215	27306.17
549.666	27272.17
550.117	27583.17
550.568	27608.17
551.019	27740.17
551.469	27789.17
551.92	28019.17
552.371	28014.17
552.822	28135.17
553.273	28263.17
553.723	28191.17
554.174	28199.17
554.625	28559.17
555.075	28539.17
555.526	28759.17
555.977	28730.17
556.427	28955.17
556.878	28920.17
557.328	29200.17
557.779	29388.17
558.229	29469.17
558.679	29529.17
559.13	29459.17
559.58	29737.17
560.031	29685.17
560.481	29931.17
560.931	29902.17
561.381	30222.17
561.832	30145.17
562.282	30473.17
562.732	30443.17
563.182	30700.17
563.632	30607.17
564.082	30761.17
564.532	30741.17
564.982	30995.17
565.432	31118.17
565.882	31167.17
566.332	31353.17
566.782	31231.17
567.232	31441.17
567.682	31683.17
568.131	31715.17
568.581	31685.17
569.031	31901.17
569.481	32056.17
569.93	32065.17
570.38	31979.17
570.83	32255.17
571.279	32422.17
571.729	32615.17
572.179	32527.17
572.628	32728.17
573.078	32769.17
573.527	32752.17
573.976	32977.17
574.426	33155.17
574.875	33395.17
575.325	33197.17
575.774	33637.17
576.223	33556.17
576.672	33646.17
577.122	33690.17
577.571	33909.17
578.02	33867.17
578.469	33752.17
578.918	34011.17
579.367	34070.17
579.817	34315.17
580.266	34137.17
580.715	34231.17
581.164	34148.17
581.613	34251.17
582.061	34464.17
582.51	34460.17
582.959	34835.17
583.408	35017.17
583.857	35039.17
584.306	35351.17
584.754	35435.17
585.203	35567.17
585.652	35627.17
586.1	35883.17
586.549	36170.17
586.998	36067.17
587.446	36155.17
587.895	36144.17
588.343	36419.17
588.792	36401.17
589.24	36359.17
589.689	36651.17
590.137	36781.17
590.586	36815.17
591.034	36893.17
591.482	37117.17
591.931	37025.17
592.379	37135.17
592.827	37326.17
593.275	37318.17
593.723	37560.17
594.172	37414.17
594.62	37305.17
595.068	37660.17
595.516	37631.17
595.964	37789.17
596.412	37827.17
596.86	37935.17
597.308	38100.17
597.756	38219.17
598.204	38204.17
598.651	38303.17
599.099	38606.17
599.547	38469.17
599.995	38563.17
600.443	38755.17
600.89	38885.17
601.338	39141.17
601.786	38812.17
602.233	39123.17
602.681	39326.17
603.128	39623.17
603.576	39435.17
604.023	39517.17
604.471	39620.17
604.918	39807.17
605.366	39929.17
605.813	40103.17
606.261	39900.17
606.708	40054.17
607.155	40267.17
607.603	40365.17
608.05	40354.17
608.497	40586.17
608.944	40579.17
609.391	40901.17
609.839	41011.17
610.286	41028.17
610.733	41068.17
611.18	41071.17
611.627	41323.17
612.074	41128.17
612.521	41591.17
612.968	41678.17
613.415	41628.17
613.861	41910.17
614.308	41960.17
614.755	42091.17
615.202	42079.17
615.649	42232.17
616.095	42307.17
616.542	42389.17
616.989	42470.17
617.435	42637.17
617.882	42805.17
618.329	42735.17
618.775	42894.17
619.222	42946.17
619.668	42915.17
620.115	43255.17
620.561	43117.17
621.007	43094.17
621.454	43197.17
621.9	43339.17
622.347	43503.17
622.793	43795.17
623.239	43539.17
623.685	43640.17
624.132	43721.17
624.578	43843.17
625.024	43921.17
625.47	44059.17
625.916	44037.17
626.362	44317.17
626.808	44515.17
627.254	44417.17
627.7	44611.17
628.146	44547.17
628.592	44483.17
629.038	44821.17
629.484	44950.17
629.93	45016.17
630.375	44915.17
630.821	45126.17
631.267	45121.17
631.713	45341.17
632.158	45766.17
632.604	45918.17
633.05	45848.17
633.495	45778.17
633.941	46176.17
634.386	46165.17
634.832	45947.17
635.277	46157.17
635.723	46107.17
636.168	46179.17
636.613	46375.17
637.059	46763.17
637.504	46798.17
637.949	46952.17
638.395	46840.17
638.84	47038.17
639.285	47117.17
639.73	47295.17
640.175	47334.17
640.621	47259.17
641.066	47500.17
641.511	47588.17
641.956	47477.17
642.401	47608.17
642.846	47475.17
643.291	47733.17
643.736	48147.17
644.181	48017.17
644.625	48211.17
645.07	48177.17
645.515	48080.17
645.96	48152.17
646.405	48481.17
646.849	48405.17
647.294	48468.17
647.739	48592.17
648.183	48615.17
648.628	48704.17
649.072	48776.17
649.517	48451.17
649.961	48879.17
650.406	49147.17
650.85	49077.17
651.295	48844.17
651.739	49335.17
652.184	49158.17
652.628	49307.17
653.072	49505.17
653.516	49515.17
653.961	49771.17
654.405	49623.17
654.849	49444.17
655.293	49751.17
655.737	49779.17
656.182	50160.17
656.626	50270.17
657.07	50279.17
657.514	50347.17
657.958	50207.17
658.402	50221.17
658.845	50205.17
659.289	50415.17
659.733	50284.17
660.177	50446.17
660.621	50804.17
661.065	50650.17
661.508	50546.17
661.952	50760.17
662.396	50693.17
662.839	50729.17
663.283	51002.17
663.727	51151.17
664.17	51140.17
664.614	51030.17
665.057	51027.17
665.501	51181.17
665.944	51223.17
666.388	51283.17
666.831	51567.17
667.274	51384.17
667.718	51661.17
668.161	51831.17
668.604	51556.17
669.048	51650.17
669.491	51910.17
669.934	51740.17
670.377	51916.17
670.82	51719.17
671.263	51678.17
671.706	52007.17
672.149	52010.17
672.592	52235.17
673.035	52286.17
673.478	52077.17
673.921	52083.17
674.364	52339.17
674.807	52459.17
675.25	52596.17
675.693	52583.17
676.135	52697.17
676.578	52519.17
677.021	52833.17
677.464	52799.17
677.906	52607.17
678.349	52758.17
678.791	52859.17
679.234	52927.17
679.676	52879.17
680.119	53027.17
680.561	53023.17
681.004	53112.17
681.446	53089.17
681.889	53375.17
682.331	53420.17
682.773	53406.17
683.216	53633.17
683.658	53655.17
684.1	53565.17
684.542	53310.17
684.985	53579.17
685.427	53549.17
685.869	53749.17
686.311	53895.17
686.753	53669.17
687.195	54071.17
687.637	53979.17
688.079	53971.17
688.521	54263.17
688.963	54227.17
689.405	54007.17
689.846	54245.17
690.288	54524.17
690.73	54195.17
691.172	54278.17
691.614	54420.17
692.055	54139.17
692.497	54319.17
692.939	54500.17
693.38	54375.17
693.822	54575.17
694.263	54503.17
694.705	54959.17
695.146	54876.17
695.588	54988.17
696.029	55163.17
696.471	54844.17
696.912	55085.17
697.353	54711.17
697.795	54820.17
698.236	54495.17
698.677	54899.17
699.118	55047.17
699.56	55278.17
700.001	55347.17
700.442	55704.17
700.883	55585.17
701.324	55360.17
701.765	55344.17
702.206	55192.17
702.647	55195.17
703.088	55215.17
703.529	55248.17
703.97	55149.17
704.411	55263.17
704.852	55334.17
705.292	55238.17
705.733	55525.17
706.174	55611.17
706.615	55453.17
707.055	55553.17
707.496	55256.17
707.937	55683.17
708.377	55675.17
708.818	55812.17
709.258	55939.17
709.699	55737.17
710.139	56121.17
710.58	56058.17
711.02	55958.17
711.461	55593.17
711.901	55940.17
712.341	55748.17
712.781	55676.17
713.222	55719.17
713.662	55883.17
714.102	56171.17
714.542	55867.17
714.983	55977.17
715.423	56243.17
715.863	56288.17
716.303	56432.17
716.743	56357.17
717.183	56173.17
717.623	56115.17
718.063	56081.17
718.503	55701.17
718.942	55596.17
719.382	55725.17
719.822	56011.17
720.262	56019.17
720.702	56181.17
721.141	56351.17
721.581	56291.17
722.021	56395.17
722.46	56459.17
722.9	56120.17
723.34	56116.17
723.779	56117.17
724.219	55992.17
724.658	56125.17
725.098	55916.17
725.537	56189.17
725.976	56025.17
726.416	56236.17
726.855	56243.17
727.294	56507.17
727.734	56451.17
