Data from torch3_MAYP1140501__0__12-27-29-303.txt Node

Date: Fri Mar 25 12:27:29 GMT 2022
User: stone
Spectrometer: MAYP114050
Trigger mode: 0
Integration Time (sec): 7.200000E-3
Scans to average: 1
Electric dark correction enabled: true
Nonlinearity correction enabled: false
Boxcar width: 0
XAxis mode: Wavelengths
Number of Pixels in Spectrum: 2068
>>>>>Begin Spectral Data<<<<<
198.571	719.83
199.043	-66.17
199.514	10.83
199.985	-4.17
200.456	25.83
200.928	26.83
201.399	18.83
201.87	29.83
202.341	34.83
202.812	34.83
203.283	22.83
203.754	25.83
204.225	30.83
204.697	32.83
205.168	21.83
205.638	28.83
206.109	26.83
206.58	29.83
207.051	18.83
207.522	31.83
207.993	23.83
208.464	16.83
208.935	28.83
209.405	28.83
209.876	37.83
210.347	36.83
210.818	25.83
211.288	27.83
211.759	35.83
212.229	39.83
212.7	35.83
213.171	37.83
213.641	22.83
214.112	38.83
214.582	30.83
215.053	27.83
215.523	29.83
215.993	25.83
216.464	23.83
216.934	39.83
217.405	43.83
217.875	30.83
218.345	34.83
218.815	39.83
219.286	39.83
219.756	27.83
220.226	31.83
220.696	43.83
221.166	40.83
221.636	44.83
222.107	34.83
222.577	25.83
223.047	29.83
223.517	27.83
223.987	27.83
224.457	30.83
224.927	33.83
225.396	41.83
225.866	36.83
226.336	31.83
226.806	47.83
227.276	29.83
227.746	35.83
228.215	38.83
228.685	32.83
229.155	35.83
229.625	38.83
230.094	35.83
230.564	31.83
231.033	37.83
231.503	32.83
231.973	32.83
232.442	32.83
232.912	34.83
233.381	31.83
233.851	31.83
234.32	41.83
234.789	36.83
235.259	38.83
235.728	36.83
236.197	40.83
236.667	41.83
237.136	34.83
237.605	32.83
238.074	33.83
238.544	29.83
239.013	38.83
239.482	34.83
239.951	37.83
240.42	44.83
240.889	36.83
241.358	35.83
241.827	30.83
242.296	34.83
242.765	44.83
243.234	25.83
243.703	37.83
244.172	37.83
244.641	28.83
245.11	39.83
245.579	38.83
246.047	48.83
246.516	29.83
246.985	41.83
247.454	30.83
247.922	33.83
248.391	39.83
248.86	36.83
249.328	39.83
249.797	43.83
250.265	27.83
250.734	32.83
251.202	31.83
251.671	35.83
252.139	40.83
252.608	41.83
253.076	32.83
253.544	33.83
254.013	41.83
254.481	42.83
254.949	41.83
255.418	20.83
255.886	44.83
256.354	37.83
256.822	48.83
257.291	38.83
257.759	31.83
258.227	36.83
258.695	40.83
259.163	43.83
259.631	23.83
260.099	36.83
260.567	47.83
261.035	41.83
261.503	33.83
261.971	30.83
262.439	33.83
262.907	39.83
263.375	34.83
263.842	40.83
264.31	36.83
264.778	49.83
265.246	41.83
265.713	46.83
266.181	37.83
266.649	34.83
267.116	41.83
267.584	34.83
268.052	26.83
268.519	35.83
268.987	35.83
269.454	44.83
269.922	45.83
270.389	38.83
270.856	32.83
271.324	39.83
271.791	43.83
272.259	37.83
272.726	44.83
273.193	37.83
273.66	40.83
274.128	46.83
274.595	45.83
275.062	42.83
275.529	40.83
275.996	40.83
276.464	45.83
276.931	43.83
277.398	47.83
277.865	44.83
278.332	43.83
278.799	49.83
279.266	48.83
279.733	44.83
280.2	42.83
280.667	36.83
281.133	48.83
281.6	41.83
282.067	46.83
282.534	39.83
283.001	41.83
283.467	44.83
283.934	40.83
284.401	45.83
284.867	38.83
285.334	35.83
285.801	42.83
286.267	41.83
286.734	36.83
287.2	41.83
287.667	37.83
288.133	31.83
288.6	43.83
289.066	43.83
289.532	37.83
289.999	36.83
290.465	43.83
290.931	43.83
291.398	43.83
291.864	39.83
292.33	49.83
292.796	41.83
293.263	52.83
293.729	42.83
294.195	37.83
294.661	45.83
295.127	54.83
295.593	36.83
296.059	41.83
296.525	37.83
296.991	42.83
297.457	43.83
297.923	52.83
298.389	47.83
298.855	49.83
299.321	42.83
299.786	41.83
300.252	38.83
300.718	42.83
301.184	41.83
301.65	45.83
302.115	46.83
302.581	42.83
303.047	50.83
303.512	45.83
303.978	43.83
304.443	42.83
304.909	49.83
305.374	44.83
305.84	47.83
306.305	43.83
306.771	43.83
307.236	41.83
307.701	35.83
308.167	42.83
308.632	40.83
309.097	47.83
309.563	40.83
310.028	45.83
310.493	44.83
310.958	36.83
311.424	36.83
311.889	39.83
312.354	40.83
312.819	37.83
313.284	35.83
313.749	41.83
314.214	38.83
314.679	46.83
315.144	44.83
315.609	41.83
316.074	41.83
316.539	39.83
317.004	37.83
317.468	42.83
317.933	43.83
318.398	45.83
318.863	47.83
319.327	44.83
319.792	45.83
320.257	43.83
320.721	44.83
321.186	39.83
321.651	42.83
322.115	50.83
322.58	41.83
323.044	49.83
323.509	36.83
323.973	57.83
324.438	46.83
324.902	40.83
325.366	54.83
325.831	44.83
326.295	40.83
326.759	29.83
327.224	41.83
327.688	37.83
328.152	34.83
328.616	49.83
329.081	40.83
329.545	40.83
330.009	40.83
330.473	37.83
330.937	41.83
331.401	40.83
331.865	46.83
332.329	45.83
332.793	39.83
333.257	47.83
333.721	51.83
334.185	53.83
334.649	40.83
335.112	38.83
335.576	39.83
336.04	46.83
336.504	52.83
336.967	44.83
337.431	46.83
337.895	45.83
338.358	45.83
338.822	43.83
339.286	48.83
339.749	51.83
340.213	48.83
340.676	70.83
341.14	37.83
341.603	47.83
342.067	43.83
342.53	52.83
342.993	40.83
343.457	47.83
343.92	37.83
344.383	52.83
344.847	48.83
345.31	43.83
345.773	42.83
346.236	49.83
346.699	51.83
347.163	42.83
347.626	46.83
348.089	44.83
348.552	45.83
349.015	41.83
349.478	36.83
349.941	46.83
350.404	53.83
350.867	49.83
351.33	52.83
351.793	33.83
352.255	47.83
352.718	39.83
353.181	38.83
353.644	42.83
354.107	41.83
354.569	35.83
355.032	44.83
355.495	46.83
355.957	52.83
356.42	44.83
356.882	36.83
357.345	32.83
357.808	49.83
358.27	45.83
358.733	42.83
359.195	40.83
359.657	49.83
360.12	48.83
360.582	41.83
361.045	46.83
361.507	53.83
361.969	39.83
362.431	49.83
362.894	51.83
363.356	46.83
363.818	41.83
364.28	45.83
364.742	44.83
365.204	47.83
365.667	42.83
366.129	45.83
366.591	43.83
367.053	46.83
367.515	43.83
367.977	51.83
368.438	51.83
368.9	41.83
369.362	49.83
369.824	43.83
370.286	50.83
370.748	51.83
371.209	42.83
371.671	41.83
372.133	50.83
372.594	56.83
373.056	42.83
373.518	39.83
373.979	45.83
374.441	45.83
374.902	36.83
375.364	54.83
375.825	46.83
376.287	43.83
376.748	53.83
377.21	55.83
377.671	47.83
378.133	59.83
378.594	52.83
379.055	44.83
379.516	59.83
379.978	51.83
380.439	49.83
380.9	54.83
381.361	45.83
381.822	39.83
382.284	47.83
382.745	54.83
383.206	52.83
383.667	53.83
384.128	50.83
384.589	54.83
385.05	49.83
385.511	52.83
385.971	53.83
386.432	56.83
386.893	56.83
387.354	56.83
387.815	66.83
388.276	60.83
388.736	53.83
389.197	64.83
389.658	63.83
390.118	52.83
390.579	53.83
391.04	66.83
391.5	67.83
391.961	70.83
392.421	65.83
392.882	76.83
393.342	80.83
393.803	87.83
394.263	79.83
394.723	92.83
395.184	83.83
395.644	83.83
396.104	126.83
396.565	98.83
397.025	112.83
397.485	113.83
397.945	109.83
398.406	128.83
398.866	142.83
399.326	139.83
399.786	143.83
400.246	165.83
400.706	177.83
401.166	194.83
401.626	209.83
402.086	218.83
402.546	237.83
403.006	251.83
403.466	301.83
403.926	290.83
404.385	354.83
404.845	350.83
405.305	393.83
405.765	428.83
406.224	482.83
406.684	513.83
407.144	545.83
407.603	619.83
408.063	674.83
408.523	768.83
408.982	834.83
409.442	917.83
409.901	995.83
410.361	1076.83
410.82	1168.83
411.28	1305.83
411.739	1448.83
412.198	1558.83
412.658	1699.83
413.117	1800.83
413.576	2027.83
414.035	2241.83
414.495	2381.83
414.954	2541.83
415.413	2794.83
415.872	2986.83
416.331	3269.83
416.79	3624.83
417.249	3880.83
417.709	4183.83
418.168	4498.83
418.627	4917.83
419.085	5361.83
419.544	5696.83
420.003	6195.83
420.462	6662.83
420.921	7126.83
421.38	7696.83
421.839	8100.83
422.297	8874.83
422.756	9568.83
423.215	10067.83
423.674	10901.83
424.132	11598.83
424.591	12280.83
425.049	13145.83
425.508	13916.83
425.967	14864.83
426.425	15851.83
426.884	16729.83
427.342	17633.83
427.8	18612.83
428.259	19646.83
428.717	20708.83
429.176	21735.83
429.634	22896.83
430.092	24052.83
430.551	25271.83
431.009	26470.83
431.467	27630.83
431.925	29055.83
432.383	30219.83
432.841	31429.83
433.3	32714.83
433.758	34076.83
434.216	35370.83
434.674	36420.83
435.132	37709.83
435.59	38948.83
436.048	40186.83
436.506	41393.83
436.963	42623.83
437.421	43497.83
437.879	44590.83
438.337	45489.83
438.795	46208.83
439.253	47382.83
439.71	47918.83
440.168	48410.83
440.626	49096.83
441.083	49365.83
441.541	49421.83
441.999	49683.83
442.456	49592.83
442.914	49042.83
443.371	49098.83
443.829	48700.83
444.286	48295.83
444.743	47514.83
445.201	46854.83
445.658	45662.83
446.116	44887.83
446.573	43862.83
447.03	42459.83
447.487	41071.83
447.945	39630.83
448.402	38307.83
448.859	36645.83
449.316	35149.83
449.773	33595.83
450.23	32348.83
450.688	30721.83
451.145	29315.83
451.602	27750.83
452.059	26413.83
452.516	25039.83
452.972	23728.83
453.429	22307.83
453.886	21233.83
454.343	20193.83
454.8	19268.83
455.257	18293.83
455.713	17420.83
456.17	16461.83
456.627	15909.83
457.084	15123.83
457.54	14551.83
457.997	13969.83
458.454	13346.83
458.91	12799.83
459.367	12388.83
459.823	11986.83
460.28	11520.83
460.736	10958.83
461.193	10714.83
461.649	10272.83
462.105	9888.83
462.562	9544.83
463.018	9123.83
463.474	8865.83
463.931	8505.83
464.387	8185.83
464.843	7870.83
465.299	7507.83
465.755	7327.83
466.212	7074.83
466.668	6706.83
467.124	6464.83
467.58	6265.83
468.036	6064.83
468.492	5827.83
468.948	5765.83
469.404	5446.83
469.86	5230.83
470.316	5167.83
470.771	4930.83
471.227	4930.83
471.683	4724.83
472.139	4647.83
472.595	4590.83
473.05	4475.83
473.506	4315.83
473.962	4349.83
474.417	4245.83
474.873	4267.83
475.328	4126.83
475.784	4033.83
476.24	4013.83
476.695	4094.83
477.15	4016.83
477.606	3990.83
478.061	3968.83
478.517	4011.83
478.972	3988.83
479.427	3953.83
479.883	4003.83
480.338	4001.83
480.793	4016.83
481.248	4002.83
481.704	4057.83
482.159	4049.83
482.614	4089.83
483.069	4073.83
483.524	4221.83
483.979	4199.83
484.434	4306.83
484.889	4293.83
485.344	4428.83
485.799	4505.83
486.254	4574.83
486.709	4652.83
487.164	4686.83
487.619	4910.83
488.073	4973.83
488.528	5006.83
488.983	5227.83
489.438	5408.83
489.892	5459.83
490.347	5484.83
490.802	5774.83
491.256	5777.83
491.711	6058.83
492.165	6156.83
492.62	6330.83
493.074	6471.83
493.529	6634.83
493.983	6995.83
494.438	7084.83
494.892	7284.83
495.347	7368.83
495.801	7659.83
496.255	7872.83
496.709	7999.83
497.164	8184.83
497.618	8527.83
498.072	8668.83
498.526	8902.83
498.98	9021.83
499.435	9316.83
499.889	9445.83
500.343	9809.83
500.797	9884.83
501.251	10189.83
501.705	10341.83
502.159	10510.83
502.612	10744.83
503.066	11052.83
503.52	11345.83
503.974	11538.83
504.428	11812.83
504.882	11775.83
505.335	12102.83
505.789	12572.83
506.243	12638.83
506.696	12968.83
507.15	13120.83
507.604	13464.83
508.057	13686.83
508.511	13951.83
508.964	14213.83
509.418	14486.83
509.871	14624.83
510.325	14674.83
510.778	14991.83
511.231	15120.83
511.685	15343.83
512.138	15749.83
512.591	15965.83
513.045	16078.83
513.498	16263.83
513.951	16577.83
514.404	16773.83
514.857	16896.83
515.311	16994.83
515.764	17189.83
516.217	17328.83
516.67	17603.83
517.123	17697.83
517.576	17926.83
518.029	18143.83
518.482	18193.83
518.935	18279.83
519.388	18590.83
519.84	18768.83
520.293	18949.83
520.746	18957.83
521.199	19226.83
521.651	19440.83
522.104	19602.83
522.557	19605.83
523.009	19867.83
523.462	20027.83
523.915	20084.83
524.367	20309.83
524.82	20302.83
525.272	20372.83
525.725	20533.83
526.177	20557.83
526.63	20676.83
527.082	20854.83
527.534	20823.83
527.987	21049.83
528.439	21093.83
528.891	21209.83
529.344	21229.83
529.796	21254.83
530.248	21412.83
530.7	21578.83
531.152	21497.83
531.604	21695.83
532.057	21766.83
532.509	21752.83
532.961	21814.83
533.413	22024.83
533.865	22095.83
534.317	22278.83
534.768	22136.83
535.22	22233.83
535.672	22314.83
536.124	22281.83
536.576	22331.83
537.028	22491.83
537.479	22648.83
537.931	22580.83
538.383	22637.83
538.834	22589.83
539.286	22535.83
539.738	22881.83
540.189	22708.83
540.641	22811.83
541.092	22738.83
541.544	22737.83
541.995	22792.83
542.447	22806.83
542.898	23021.83
543.349	22910.83
543.801	23127.83
544.252	23036.83
544.703	23127.83
545.155	23109.83
545.606	23127.83
546.057	23040.83
546.508	23242.83
546.959	23204.83
547.411	23336.83
547.862	23172.83
548.313	23312.83
548.764	23366.83
549.215	23417.83
549.666	23408.83
550.117	23273.83
550.568	23412.83
551.019	23244.83
551.469	23346.83
551.92	23577.83
552.371	23310.83
552.822	23554.83
553.273	23599.83
553.723	23489.83
554.174	23499.83
554.625	23486.83
555.075	23463.83
555.526	23624.83
555.977	23615.83
556.427	23606.83
556.878	23647.83
557.328	23516.83
557.779	23664.83
558.229	23604.83
558.679	23668.83
559.13	23694.83
559.58	23773.83
560.031	23753.83
560.481	23718.83
560.931	23922.83
561.381	23789.83
561.832	23579.83
562.282	23583.83
562.732	23634.83
563.182	23675.83
563.632	23667.83
564.082	23853.83
564.532	23815.83
564.982	23789.83
565.432	23701.83
565.882	23506.83
566.332	23717.83
566.782	23783.83
567.232	23843.83
567.682	23846.83
568.131	23667.83
568.581	23693.83
569.031	23727.83
569.481	23687.83
569.93	23625.83
570.38	23870.83
570.83	23444.83
571.279	23484.83
571.729	23632.83
572.179	23751.83
572.628	23706.83
573.078	23838.83
573.527	23620.83
573.976	23539.83
574.426	23539.83
574.875	23521.83
575.325	23379.83
575.774	23452.83
576.223	23420.83
576.672	23301.83
577.122	23298.83
577.571	23112.83
578.02	23117.83
578.469	23499.83
578.918	23221.83
579.367	23130.83
579.817	23107.83
580.266	23061.83
580.715	23049.83
581.164	22721.83
581.613	22834.83
582.061	22760.83
582.51	22617.83
582.959	22785.83
583.408	22939.83
583.857	22962.83
584.306	22951.83
584.754	22918.83
585.203	22783.83
585.652	22777.83
586.1	22680.83
586.549	22636.83
586.998	22646.83
587.446	22430.83
587.895	22306.83
588.343	22306.83
588.792	22250.83
589.24	22205.83
589.689	22244.83
590.137	22226.83
590.586	21992.83
591.034	21756.83
591.482	21881.83
591.931	21776.83
592.379	21760.83
592.827	21738.83
593.275	21853.83
593.723	21629.83
594.172	21497.83
594.62	21353.83
595.068	21401.83
595.516	21133.83
595.964	21078.83
596.412	21000.83
596.86	21029.83
597.308	20861.83
597.756	20502.83
598.204	20624.83
598.651	20607.83
599.099	20475.83
599.547	20356.83
599.995	20364.83
600.443	20315.83
600.89	20170.83
601.338	19850.83
601.786	19728.83
602.233	19818.83
602.681	19592.83
603.128	19417.83
603.576	19270.83
604.023	19372.83
604.471	19345.83
604.918	19232.83
605.366	19011.83
605.813	19086.83
606.261	18888.83
606.708	18823.83
607.155	18684.83
607.603	18553.83
608.05	18465.83
608.497	18442.83
608.944	18205.83
609.391	18160.83
609.839	18001.83
610.286	17908.83
610.733	17959.83
611.18	17839.83
611.627	17654.83
612.074	17560.83
612.521	17288.83
612.968	17372.83
613.415	17239.83
613.861	17174.83
614.308	16798.83
614.755	16826.83
615.202	16677.83
615.649	16668.83
616.095	16561.83
616.542	16402.83
616.989	16366.83
617.435	16188.83
617.882	16056.83
618.329	15971.83
618.775	15942.83
619.222	15645.83
619.668	15524.83
620.115	15316.83
620.561	15238.83
621.007	15174.83
621.454	15001.83
621.9	14921.83
622.347	14895.83
622.793	14849.83
623.239	14497.83
623.685	14452.83
624.132	14321.83
624.578	14203.83
625.024	14140.83
625.47	13872.83
625.916	13759.83
626.362	13668.83
626.808	13447.83
627.254	13381.83
627.7	13422.83
628.146	13124.83
628.592	13113.83
629.038	13116.83
629.484	12859.83
629.93	12810.83
630.375	12617.83
630.821	12570.83
631.267	12429.83
631.713	12254.83
632.158	12134.83
632.604	12161.83
633.05	12008.83
633.495	11838.83
633.941	11803.83
634.386	11724.83
634.832	11622.83
635.277	11525.83
635.723	11505.83
636.168	11343.83
636.613	11332.83
637.059	11128.83
637.504	11049.83
637.949	10903.83
638.395	10729.83
638.84	10581.83
639.285	10452.83
639.73	10358.83
640.175	10268.83
640.621	10241.83
641.066	10217.83
641.511	10044.83
641.956	9899.83
642.401	9624.83
642.846	9773.83
643.291	9655.83
643.736	9485.83
644.181	9481.83
644.625	9285.83
645.07	9155.83
645.515	9171.83
645.96	9066.83
646.405	8985.83
646.849	8939.83
647.294	8797.83
647.739	8676.83
648.183	8568.83
648.628	8511.83
649.072	8451.83
649.517	8395.83
649.961	8275.83
650.406	8112.83
650.85	7975.83
651.295	7953.83
651.739	7911.83
652.184	7740.83
652.628	7694.83
653.072	7658.83
653.516	7521.83
653.961	7368.83
654.405	7287.83
654.849	7238.83
655.293	7126.83
655.737	7024.83
656.182	7052.83
656.626	6839.83
657.07	6889.83
657.514	6719.83
657.958	6724.83
658.402	6712.83
658.845	6519.83
659.289	6444.83
659.733	6473.83
660.177	6414.83
660.621	6339.83
661.065	6217.83
661.508	6108.83
661.952	6022.83
662.396	6002.83
662.839	5972.83
663.283	5939.83
663.727	5731.83
664.17	5653.83
664.614	5670.83
665.057	5608.83
665.501	5556.83
665.944	5485.83
666.388	5443.83
666.831	5353.83
667.274	5302.83
667.718	5144.83
668.161	5093.83
668.604	5037.83
669.048	5035.83
669.491	4940.83
669.934	4944.83
670.377	4785.83
670.82	4771.83
671.263	4658.83
671.706	4685.83
672.149	4638.83
672.592	4521.83
673.035	4515.83
673.478	4460.83
673.921	4426.83
674.364	4279.83
674.807	4274.83
675.25	4251.83
675.693	4165.83
676.135	4090.83
676.578	4111.83
677.021	4047.83
677.464	4034.83
677.906	3886.83
678.349	3870.83
678.791	3857.83
679.234	3750.83
679.676	3744.83
680.119	3595.83
680.561	3662.83
681.004	3623.83
681.446	3569.83
681.889	3648.83
682.331	3452.83
682.773	3401.83
683.216	3432.83
683.658	3355.83
684.1	3333.83
684.542	3323.83
684.985	3321.83
685.427	3155.83
685.869	3180.83
686.311	3156.83
686.753	3096.83
687.195	3038.83
687.637	2946.83
688.079	2948.83
688.521	2919.83
688.963	2859.83
689.405	2891.83
689.846	2777.83
690.288	2837.83
690.73	2750.83
691.172	2729.83
691.614	2664.83
692.055	2629.83
692.497	2582.83
692.939	2550.83
693.38	2525.83
693.822	2497.83
694.263	2516.83
694.705	2477.83
695.146	2422.83
695.588	2425.83
696.029	2399.83
696.471	2326.83
696.912	2263.83
697.353	2276.83
697.795	2226.83
698.236	2219.83
698.677	2117.83
699.118	2097.83
699.56	2101.83
700.001	2064.83
700.442	2091.83
700.883	1974.83
701.324	2036.83
701.765	1993.83
702.206	2010.83
702.647	1920.83
703.088	1934.83
703.529	1888.83
703.97	1898.83
704.411	1869.83
704.852	1846.83
705.292	1817.83
705.733	1807.83
706.174	1812.83
706.615	1704.83
707.055	1744.83
707.496	1726.83
707.937	1670.83
708.377	1646.83
708.818	1630.83
709.258	1582.83
709.699	1551.83
710.139	1560.83
710.58	1577.83
711.02	1527.83
711.461	1529.83
711.901	1505.83
712.341	1489.83
712.781	1431.83
713.222	1420.83
713.662	1384.83
714.102	1405.83
714.542	1338.83
714.983	1341.83
715.423	1366.83
715.863	1319.83
716.303	1278.83
716.743	1272.83
717.183	1286.83
717.623	1283.83
718.063	1266.83
718.503	1234.83
718.942	1220.83
719.382	1209.83
719.822	1136.83
720.262	1142.83
720.702	1152.83
721.141	1132.83
721.581	1127.83
722.021	1125.83
722.46	1107.83
722.9	1045.83
723.34	1030.83
723.779	1031.83
724.219	1051.83
724.658	1007.83
725.098	1014.83
725.537	1009.83
725.976	988.83
726.416	972.83
726.855	960.83
727.294	936.83
727.734	934.83
728.173	909.83
728.612	901.83
729.051	912.83
729.49	867.83
729.93	888.83
730.369	854.83
730.808	853.83
731.247	829.83
731.686	835.83
732.125	843.83
732.564	839.83
733.003	805.83
733.441	767.83
733.88	771.83
734.319	728.83
734.758	749.83
735.197	744.83
735.635	762.83
736.074	727.83
736.513	689.83
736.951	688.83
737.39	696.83
737.829	706.83
738.267	676.83
738.706	689.83
739.144	658.83
739.583	665.83
740.021	628.83
