节点xenon_nova_300_MAYP1140501__0__000.txt的数据

Date: Tue Mar 01 11:53:37 GMT 2022
User: stone
Spectrometer: MAYP114050
触发模式: 0
积分时间 (秒): 1.847000E-2
Scans to average: 1
启用暗噪声校正: true
启用非线性校正: false
滑动平均宽度: 0
X轴模式: Wavelengths
Number of Pixels in Spectrum: 2068
>>>>>Begin Spectral Data<<<<<
198.571	707.33
199.043	-70.67
199.514	11.33
199.985	1.33
200.456	31.33
200.928	33.33
201.399	63.33
201.87	71.33
202.341	75.33
202.812	74.33
203.283	78.33
203.754	84.33
204.225	66.33
204.697	72.33
205.168	90.33
205.638	78.33
206.109	84.33
206.58	81.33
207.051	86.33
207.522	73.33
207.993	79.33
208.464	92.33
208.935	88.33
209.405	78.33
209.876	85.33
210.347	88.33
210.818	86.33
211.288	87.33
211.759	102.33
212.229	86.33
212.7	83.33
213.171	83.33
213.641	70.33
214.112	96.33
214.582	76.33
215.053	88.33
215.523	86.33
215.993	78.33
216.464	84.33
216.934	89.33
217.405	89.33
217.875	86.33
218.345	98.33
218.815	89.33
219.286	93.33
219.756	73.33
220.226	77.33
220.696	93.33
221.166	94.33
221.636	87.33
222.107	101.33
222.577	91.33
223.047	89.33
223.517	98.33
223.987	97.33
224.457	100.33
224.927	106.33
225.396	91.33
225.866	95.33
226.336	93.33
226.806	82.33
227.276	94.33
227.746	91.33
228.215	96.33
228.685	80.33
229.155	89.33
229.625	83.33
230.094	91.33
230.564	81.33
231.033	84.33
231.503	80.33
231.973	71.33
232.442	78.33
232.912	81.33
233.381	86.33
233.851	99.33
234.32	96.33
234.789	78.33
235.259	75.33
235.728	88.33
236.197	88.33
236.667	97.33
237.136	81.33
237.605	88.33
238.074	90.33
238.544	91.33
239.013	85.33
239.482	81.33
239.951	90.33
240.42	79.33
240.889	82.33
241.358	84.33
241.827	77.33
242.296	89.33
242.765	78.33
243.234	89.33
243.703	93.33
244.172	88.33
244.641	79.33
245.11	89.33
245.579	82.33
246.047	94.33
246.516	82.33
246.985	86.33
247.454	78.33
247.922	81.33
248.391	89.33
248.86	74.33
249.328	80.33
249.797	89.33
250.265	76.33
250.734	83.33
251.202	89.33
251.671	89.33
252.139	86.33
252.608	86.33
253.076	92.33
253.544	89.33
254.013	90.33
254.481	84.33
254.949	76.33
255.418	75.33
255.886	89.33
256.354	86.33
256.822	80.33
257.291	90.33
257.759	77.33
258.227	70.33
258.695	79.33
259.163	91.33
259.631	85.33
260.099	74.33
260.567	79.33
261.035	79.33
261.503	80.33
261.971	78.33
262.439	86.33
262.907	92.33
263.375	77.33
263.842	74.33
264.31	79.33
264.778	87.33
265.246	83.33
265.713	75.33
266.181	94.33
266.649	82.33
267.116	86.33
267.584	90.33
268.052	78.33
268.519	94.33
268.987	95.33
269.454	75.33
269.922	78.33
270.389	90.33
270.856	77.33
271.324	84.33
271.791	80.33
272.259	86.33
272.726	83.33
273.193	96.33
273.66	86.33
274.128	89.33
274.595	94.33
275.062	87.33
275.529	92.33
275.996	85.33
276.464	82.33
276.931	78.33
277.398	80.33
277.865	89.33
278.332	94.33
278.799	91.33
279.266	82.33
279.733	99.33
280.2	90.33
280.667	86.33
281.133	92.33
281.6	82.33
282.067	93.33
282.534	99.33
283.001	82.33
283.467	77.33
283.934	81.33
284.401	83.33
284.867	86.33
285.334	93.33
285.801	87.33
286.267	93.33
286.734	97.33
287.2	77.33
287.667	91.33
288.133	81.33
288.6	82.33
289.066	93.33
289.532	89.33
289.999	86.33
290.465	91.33
290.931	93.33
291.398	94.33
291.864	99.33
292.33	81.33
292.796	100.33
293.263	89.33
293.729	81.33
294.195	87.33
294.661	98.33
295.127	87.33
295.593	95.33
296.059	80.33
296.525	95.33
296.991	90.33
297.457	95.33
297.923	91.33
298.389	102.33
298.855	96.33
299.321	113.33
299.786	108.33
300.252	78.33
300.718	87.33
301.184	98.33
301.65	75.33
302.115	90.33
302.581	97.33
303.047	98.33
303.512	101.33
303.978	99.33
304.443	100.33
304.909	106.33
305.374	108.33
305.84	90.33
306.305	94.33
306.771	107.33
307.236	96.33
307.701	89.33
308.167	107.33
308.632	101.33
309.097	100.33
309.563	83.33
310.028	118.33
310.493	104.33
310.958	105.33
311.424	96.33
311.889	102.33
312.354	110.33
312.819	76.33
313.284	98.33
313.749	111.33
314.214	99.33
314.679	102.33
315.144	104.33
315.609	107.33
316.074	94.33
316.539	106.33
317.004	104.33
317.468	113.33
317.933	110.33
318.398	111.33
318.863	105.33
319.327	105.33
319.792	101.33
320.257	92.33
320.721	108.33
321.186	110.33
321.651	113.33
322.115	104.33
322.58	93.33
323.044	109.33
323.509	107.33
323.973	99.33
324.438	106.33
324.902	105.33
325.366	114.33
325.831	125.33
326.295	111.33
326.759	101.33
327.224	118.33
327.688	108.33
328.152	124.33
328.616	123.33
329.081	107.33
329.545	110.33
330.009	107.33
330.473	108.33
330.937	109.33
331.401	118.33
331.865	118.33
332.329	117.33
332.793	111.33
333.257	122.33
333.721	92.33
334.185	102.33
334.649	105.33
335.112	140.33
335.576	109.33
336.04	105.33
336.504	119.33
336.967	119.33
337.431	105.33
337.895	105.33
338.358	115.33
338.822	102.33
339.286	123.33
339.749	123.33
340.213	137.33
340.676	211.33
341.14	111.33
341.603	115.33
342.067	118.33
342.53	124.33
342.993	127.33
343.457	105.33
343.92	106.33
344.383	122.33
344.847	119.33
345.31	103.33
345.773	127.33
346.236	113.33
346.699	117.33
347.163	112.33
347.626	132.33
348.089	112.33
348.552	114.33
349.015	112.33
349.478	109.33
349.941	111.33
350.404	116.33
350.867	112.33
351.33	131.33
351.793	108.33
352.255	122.33
352.718	106.33
353.181	122.33
353.644	119.33
354.107	127.33
354.569	126.33
355.032	122.33
355.495	112.33
355.957	144.33
356.42	117.33
356.882	121.33
357.345	128.33
357.808	110.33
358.27	123.33
358.733	123.33
359.195	123.33
359.657	126.33
360.12	119.33
360.582	113.33
361.045	123.33
361.507	125.33
361.969	135.33
362.431	135.33
362.894	122.33
363.356	132.33
363.818	127.33
364.28	139.33
364.742	142.33
365.204	134.33
365.667	133.33
366.129	133.33
366.591	125.33
367.053	134.33
367.515	128.33
367.977	126.33
368.438	153.33
368.9	145.33
369.362	134.33
369.824	154.33
370.286	147.33
370.748	162.33
371.209	141.33
371.671	145.33
372.133	158.33
372.594	156.33
373.056	161.33
373.518	165.33
373.979	162.33
374.441	171.33
374.902	163.33
375.364	176.33
375.825	182.33
376.287	160.33
376.748	188.33
377.21	168.33
377.671	195.33
378.133	187.33
378.594	186.33
379.055	215.33
379.516	208.33
379.978	212.33
380.439	207.33
380.9	230.33
381.361	224.33
381.822	243.33
382.284	239.33
382.745	263.33
383.206	287.33
383.667	303.33
384.128	343.33
384.589	363.33
385.05	442.33
385.511	485.33
385.971	505.33
386.432	561.33
386.893	588.33
387.354	662.33
387.815	667.33
388.276	674.33
388.736	653.33
389.197	681.33
389.658	706.33
390.118	742.33
390.579	891.33
391.04	938.33
391.5	1103.33
391.961	1304.33
392.421	1514.33
392.882	1780.33
393.342	2111.33
393.803	2405.33
394.263	2751.33
394.723	3006.33
395.184	3175.33
395.644	3146.33
396.104	3049.33
396.565	2707.33
397.025	2547.33
397.485	2376.33
397.945	2212.33
398.406	2229.33
398.866	2279.33
399.326	2327.33
399.786	2410.33
400.246	2546.33
400.706	2777.33
401.166	3166.33
401.626	3424.33
402.086	3930.33
402.546	4375.33
403.006	4963.33
403.466	5445.33
403.926	5928.33
404.385	6420.33
404.845	6813.33
405.305	7007.33
405.765	6848.33
406.224	6794.33
406.684	6480.33
407.144	6201.33
407.603	5986.33
408.063	5749.33
408.523	5660.33
408.982	5647.33
409.442	5761.33
409.901	5866.33
410.361	6057.33
410.82	6325.33
411.28	6781.33
411.739	7291.33
412.198	7907.33
412.658	8690.33
413.117	9386.33
413.576	10415.33
414.035	11444.33
414.495	12548.33
414.954	13675.33
415.413	14514.33
415.872	15637.33
416.331	16476.33
416.79	17097.33
417.249	17442.33
417.709	17677.33
418.168	17620.33
418.627	17347.33
419.085	17144.33
419.544	16939.33
420.003	16237.33
420.462	15919.33
420.921	15600.33
421.38	15404.33
421.839	15385.33
422.297	15299.33
422.756	15530.33
423.215	15849.33
423.674	16033.33
424.132	16495.33
424.591	17057.33
425.049	17716.33
425.508	18146.33
425.967	18785.33
426.425	19371.33
426.884	19975.33
427.342	20741.33
427.8	21153.33
428.259	21629.33
428.717	22051.33
429.176	22320.33
429.634	22663.33
430.092	22867.33
430.551	23241.33
431.009	23379.33
431.467	23334.33
431.925	23486.33
432.383	23739.33
432.841	23870.33
433.3	23910.33
433.758	24100.33
434.216	24272.33
434.674	24302.33
435.132	24497.33
435.59	24920.33
436.048	25099.33
436.506	25211.33
436.963	25772.33
437.421	26137.33
437.879	26317.33
438.337	26445.33
438.795	26824.33
439.253	26890.33
439.71	26802.33
440.168	26863.33
440.626	26891.33
441.083	26945.33
441.541	26887.33
441.999	27136.33
442.456	27021.33
442.914	27001.33
443.371	26924.33
443.829	26892.33
444.286	27011.33
444.743	26921.33
445.201	26944.33
445.658	27203.33
446.116	27235.33
446.573	27439.33
447.03	27556.33
447.487	27885.33
447.945	28509.33
448.402	29424.33
448.859	30193.33
449.316	31383.33
449.773	32404.33
450.23	33523.33
450.688	33673.33
451.145	33212.33
451.602	32508.33
452.059	32421.33
452.516	32531.33
452.972	32701.33
453.429	31788.33
453.886	31404.33
454.343	31278.33
454.8	31151.33
455.257	31611.33
455.713	31692.33
456.17	32094.33
456.627	32140.33
457.084	32799.33
457.54	33133.33
457.997	33439.33
458.454	33317.33
458.91	33498.33
459.367	33558.33
459.823	33697.33
460.28	34167.33
460.736	34775.33
461.193	35795.33
461.649	36949.33
462.105	37877.33
462.562	39075.33
463.018	39528.33
463.474	39837.33
463.931	39629.33
464.387	39553.33
464.843	40055.33
465.299	40846.33
465.755	42070.33
466.212	44031.33
466.668	45949.33
467.124	48033.33
467.58	49492.33
468.036	50125.33
468.492	49288.33
468.948	47656.33
469.404	46168.33
469.86	45125.33
470.316	44107.33
470.771	43091.33
471.227	42471.33
471.683	42725.33
472.139	43342.33
472.595	44034.33
473.05	45072.33
473.506	45425.33
473.962	44733.33
474.417	42567.33
474.873	40567.33
475.328	39391.33
475.784	38777.33
476.24	38433.33
476.695	38429.33
477.15	38457.33
477.606	38495.33
478.061	38569.33
478.517	38879.33
478.972	39402.33
479.427	40265.33
479.883	40991.33
480.338	41903.33
480.793	42780.33
481.248	43508.33
481.704	43679.33
482.159	43334.33
482.614	42880.33
483.069	42782.33
483.524	42678.33
483.979	42220.33
484.434	41600.33
484.889	41142.33
485.344	40653.33
485.799	40143.33
486.254	39640.33
486.709	39742.33
487.164	39884.33
487.619	39992.33
488.073	40191.33
488.528	40393.33
488.983	40496.33
489.438	40833.33
489.892	41417.33
490.347	42251.33
490.802	43094.33
491.256	44416.33
491.711	45447.33
492.165	45989.33
492.62	46174.33
493.074	45415.33
493.529	44584.33
493.983	43661.33
494.438	42602.33
494.892	42068.33
495.347	41717.33
495.801	41163.33
496.255	40904.33
496.709	40538.33
497.164	40540.33
497.618	40377.33
498.072	40345.33
498.526	40208.33
498.98	40318.33
499.435	40368.33
499.889	40475.33
500.343	40436.33
500.797	40443.33
501.251	40756.33
501.705	40862.33
502.159	41159.33
502.612	41212.33
503.066	41395.33
503.52	41537.33
503.974	41479.33
504.428	41637.33
504.882	41441.33
505.335	41408.33
505.789	41365.33
506.243	41300.33
506.696	41537.33
507.15	41292.33
507.604	41529.33
508.057	41403.33
508.511	41271.33
508.964	41347.33
509.418	41441.33
509.871	41101.33
510.325	41287.33
510.778	41428.33
511.231	41228.33
511.685	41283.33
512.138	41245.33
512.591	41459.33
513.045	41558.33
513.498	41473.33
513.951	41677.33
514.404	41751.33
514.857	41655.33
515.311	42003.33
515.764	41808.33
516.217	42153.33
516.67	42177.33
517.123	42369.33
517.576	42660.33
518.029	42921.33
518.482	43129.33
518.935	43479.33
519.388	43556.33
519.84	44033.33
520.293	44141.33
520.746	44190.33
521.199	44609.33
521.651	44758.33
522.104	45190.33
522.557	45275.33
523.009	45387.33
523.462	45514.33
523.915	45775.33
524.367	45908.33
524.82	46270.33
525.272	46313.33
525.725	46524.33
526.177	46458.33
526.63	46721.33
527.082	46405.33
527.534	46812.33
527.987	46593.33
528.439	46794.33
528.891	46770.33
529.344	46797.33
529.796	46729.33
530.248	46343.33
530.7	46402.33
531.152	46168.33
531.604	46276.33
532.057	46141.33
532.509	46040.33
532.961	46166.33
533.413	45949.33
533.865	46253.33
534.317	46246.33
534.768	46172.33
535.22	46180.33
535.672	46263.33
536.124	46322.33
536.576	46109.33
537.028	46234.33
537.479	46163.33
537.931	46329.33
538.383	46414.33
538.834	46496.33
539.286	46663.33
539.738	46874.33
540.189	47095.33
540.641	47332.33
541.092	47323.33
541.544	47745.33
541.995	47890.33
542.447	47826.33
542.898	47916.33
543.349	48037.33
543.801	48116.33
544.252	48258.33
544.703	48282.33
545.155	48496.33
545.606	48505.33
546.057	48646.33
546.508	48657.33
546.959	48647.33
547.411	48645.33
547.862	48685.33
548.313	48798.33
548.764	48563.33
549.215	48578.33
549.666	48583.33
550.117	48913.33
550.568	48420.33
551.019	48543.33
551.469	48537.33
551.92	48818.33
552.371	48883.33
552.822	48675.33
553.273	48727.33
553.723	48654.33
554.174	48471.33
554.625	48613.33
555.075	48918.33
555.526	48810.33
555.977	48731.33
556.427	48793.33
556.878	48728.33
557.328	48811.33
557.779	48680.33
558.229	48674.33
558.679	48856.33
559.13	49046.33
559.58	48951.33
560.031	49060.33
560.481	49245.33
560.931	49010.33
561.381	49024.33
561.832	49343.33
562.282	49343.33
562.732	49631.33
563.182	49440.33
563.632	49657.33
564.082	49474.33
564.532	49715.33
564.982	50107.33
565.432	50148.33
565.882	50255.33
566.332	50317.33
566.782	50582.33
567.232	50556.33
567.682	50725.33
568.131	50573.33
568.581	50715.33
569.031	50964.33
569.481	51017.33
569.93	50840.33
570.38	51114.33
570.83	51276.33
571.279	51102.33
571.729	50935.33
572.179	51077.33
572.628	50977.33
573.078	51053.33
573.527	51041.33
573.976	51093.33
574.426	51097.33
574.875	51147.33
575.325	51203.33
575.774	50934.33
576.223	51228.33
576.672	51464.33
577.122	51074.33
577.571	51303.33
578.02	51243.33
578.469	51265.33
578.918	51272.33
579.367	51200.33
579.817	51455.33
580.266	51613.33
580.715	51756.33
581.164	51666.33
581.613	51583.33
582.061	51653.33
582.51	51740.33
582.959	52252.33
583.408	52383.33
583.857	52707.33
584.306	52792.33
584.754	52727.33
585.203	52699.33
585.652	52909.33
586.1	52895.33
586.549	52699.33
586.998	52678.33
587.446	52757.33
587.895	52662.33
588.343	52583.33
588.792	52470.33
589.24	52563.33
589.689	52185.33
590.137	52036.33
590.586	51894.33
591.034	51810.33
591.482	51449.33
591.931	51373.33
592.379	51300.33
592.827	50840.33
593.275	50852.33
593.723	50760.33
594.172	50505.33
594.62	50416.33
595.068	50324.33
595.516	49785.33
595.964	49728.33
596.412	49722.33
596.86	49603.33
597.308	49494.33
597.756	49313.33
598.204	49318.33
598.651	48961.33
599.099	48980.33
599.547	48924.33
599.995	48657.33
600.443	48549.33
600.89	48815.33
601.338	48685.33
601.786	48527.33
602.233	48651.33
602.681	48408.33
603.128	48230.33
603.576	48369.33
604.023	48345.33
604.471	48322.33
604.918	48419.33
605.366	48396.33
605.813	48163.33
606.261	48457.33
606.708	48213.33
607.155	48326.33
607.603	48450.33
608.05	48376.33
608.497	48553.33
608.944	48656.33
609.391	48801.33
609.839	48864.33
610.286	49078.33
610.733	49266.33
611.18	49088.33
611.627	49472.33
612.074	49729.33
612.521	49561.33
612.968	49862.33
613.415	50108.33
613.861	50373.33
614.308	50539.33
614.755	50644.33
615.202	50994.33
615.649	51223.33
616.095	51151.33
616.542	51233.33
616.989	51323.33
617.435	51645.33
617.882	51745.33
618.329	52152.33
618.775	52149.33
619.222	52282.33
619.668	52342.33
620.115	52479.33
620.561	52349.33
621.007	52332.33
621.454	52094.33
621.9	52165.33
622.347	52257.33
622.793	51697.33
623.239	51746.33
623.685	51660.33
624.132	51350.33
624.578	51315.33
625.024	51079.33
625.47	50959.33
625.916	51157.33
626.362	50788.33
626.808	50697.33
627.254	50862.33
627.7	50754.33
628.146	50337.33
628.592	50315.33
629.038	50436.33
629.484	50452.33
629.93	50323.33
630.375	50452.33
630.821	50665.33
631.267	50639.33
631.713	50565.33
632.158	50465.33
632.604	50279.33
633.05	50320.33
633.495	50222.33
633.941	50001.33
634.386	49907.33
634.832	49958.33
635.277	49737.33
635.723	49595.33
636.168	49440.33
636.613	49407.33
637.059	49272.33
637.504	49094.33
637.949	49088.33
638.395	49004.33
638.84	48734.33
639.285	48724.33
639.73	48363.33
640.175	48165.33
640.621	48200.33
641.066	48141.33
641.511	48014.33
641.956	47830.33
642.401	47595.33
642.846	47465.33
643.291	47247.33
643.736	46976.33
644.181	46837.33
644.625	46758.33
645.07	46743.33
645.515	46804.33
645.96	46553.33
646.405	46397.33
646.849	46469.33
647.294	46401.33
647.739	46362.33
648.183	46206.33
648.628	46288.33
649.072	45889.33
649.517	45543.33
649.961	45088.33
650.406	44581.33
650.85	44078.33
651.295	43438.33
651.739	43044.33
652.184	42267.33
652.628	42005.33
653.072	41675.33
653.516	41345.33
653.961	41130.33
654.405	41110.33
654.849	40775.33
655.293	40544.33
655.737	40542.33
656.182	40437.33
656.626	40385.33
657.07	40271.33
657.514	40174.33
657.958	40297.33
658.402	40438.33
658.845	40167.33
659.289	40329.33
659.733	40554.33
660.177	40944.33
660.621	40787.33
661.065	40949.33
661.508	41361.33
661.952	41571.33
662.396	41888.33
662.839	41972.33
663.283	42363.33
663.727	42865.33
664.17	42932.33
664.614	43147.33
665.057	43513.33
665.501	43830.33
665.944	44142.33
666.388	44700.33
666.831	45052.33
667.274	45137.33
667.718	45182.33
668.161	45379.33
668.604	45365.33
669.048	45720.33
669.491	45733.33
669.934	45831.33
670.377	45699.33
670.82	45615.33
671.263	45604.33
671.706	45667.33
672.149	45481.33
672.592	45543.33
673.035	45521.33
673.478	45293.33
673.921	44927.33
674.364	44622.33
674.807	44454.33
675.25	43935.33
675.693	43647.33
676.135	43222.33
676.578	42760.33
677.021	42476.33
677.464	41773.33
677.906	41316.33
678.349	40675.33
678.791	40279.33
679.234	39675.33
679.676	39239.33
680.119	38599.33
680.561	37963.33
681.004	37829.33
681.446	37455.33
681.889	37379.33
682.331	37435.33
682.773	37599.33
683.216	37410.33
683.658	36558.33
684.1	34968.33
684.542	33610.33
684.985	32164.33
685.427	30865.33
685.869	29503.33
686.311	28207.33
686.753	27043.33
687.195	25725.33
687.637	24736.33
688.079	23546.33
688.521	22414.33
688.963	21381.33
689.405	19876.33
689.846	18671.33
690.288	17415.33
690.73	16102.33
691.172	14991.33
691.614	13894.33
692.055	12794.33
692.497	11839.33
692.939	10987.33
693.38	10186.33
693.822	9555.33
694.263	8768.33
694.705	8254.33
695.146	7766.33
695.588	7307.33
696.029	6766.33
696.471	6375.33
696.912	5943.33
697.353	5739.33
697.795	5427.33
698.236	5124.33
698.677	4935.33
699.118	4661.33
699.56	4425.33
700.001	4314.33
700.442	4105.33
700.883	3884.33
701.324	3739.33
701.765	3601.33
702.206	3366.33
702.647	3279.33
703.088	3200.33
703.529	3099.33
703.97	2994.33
704.411	2911.33
704.852	2833.33
705.292	2777.33
705.733	2678.33
706.174	2659.33
706.615	2609.33
707.055	2525.33
707.496	2485.33
707.937	2466.33
708.377	2450.33
708.818	2384.33
709.258	2408.33
709.699	2425.33
710.139	2354.33
710.58	2351.33
711.02	2356.33
711.461	2389.33
711.901	2303.33
712.341	2377.33
712.781	2336.33
713.222	2276.33
713.662	2230.33
714.102	2194.33
714.542	2140.33
714.983	2102.33
715.423	2037.33
715.863	1994.33
716.303	1951.33
716.743	1876.33
717.183	1871.33
717.623	1822.33
718.063	1777.33
718.503	1742.33
718.942	1713.33
719.382	1668.33
719.822	1655.33
720.262	1613.33
720.702	1585.33
721.141	1599.33
721.581	1556.33
722.021	1545.33
722.46	1521.33
722.9	1479.33
723.34	1497.33
723.779	1446.33
724.219	1441.33
724.658	1413.33
725.098	1407.33
725.537	1409.33
725.976	1388.33
726.416	1387.33
726.855	1401.33
727.294	1400.33
727.734	1405.33
728.173	1344.33
728.612	1422.33
729.051	1398.33
729.49	1387.33
729.93	1341.33
